#                                                           
#  ____  ____     _       ____    ____  ______      ___     
# |_  _||_  _|   / \     |_   \  /   _||_   _ \   ."   `.   
#   \ \  / /    / _ \      |   \/   |    | |_) | /  .-.  \  
#    \ \/ /    / ___ \     | |\  /| |    |  __". | |   | |  
#    _|  |_  _/ /   \ \_  _| |_\/_| |_  _| |__) |\  `-"  /  
#   |______||____| |____||_____||_____||_______/  `.___."   
#                                                           
#                                                           
#                                                           
# GPL Version 4.4.0 Revision 148. (Based on r.16920 h.961a8d
#                   MPI+SLK+OpenMP Build                    
#                http://www.yambo-code.org                  
#
# Absorption @ Q(1) [q->0 direction] :0.1000E-4  0.000     0.000   
#
#
# - Energies      are  Analyt. E
# - Wavefunctions are +AMGB (for 2D systems)(C)
#
# - The Green`s function is Retarded -
# - Using the Length Gauge -
# - [r,Vnl] *is* included -
#
#
#    E/ev[1]      EPS-Im[2]    EPS-Re[3]    EPSo-Im[4]   EPSo-Re[5]
#
    0.000000     0.000000     4.400167     0.000000     1.692111
   0.1001E-1    0.6151E-2     4.400       0.5088E-4     1.692   
   0.2002E-1    0.1231E-1     4.401       0.1018E-3     1.692   
   0.3003E-1    0.1848E-1     4.403       0.1527E-3     1.692   
   0.4004E-1    0.2467E-1     4.405       0.2035E-3     1.692   
   0.5005E-1    0.3089E-1     4.408       0.2545E-3     1.692   
   0.6006E-1    0.3714E-1     4.411       0.3054E-3     1.692   
   0.7007E-1    0.4343E-1     4.415       0.3563E-3     1.692   
   0.8008E-1    0.4977E-1     4.419       0.4072E-3     1.692   
   0.9009E-1    0.5616E-1     4.424       0.4582E-3     1.692   
   0.1001       0.6262E-1     4.430       0.5092E-3     1.692   
   0.1101       0.6914E-1     4.436       0.5602E-3     1.692   
   0.1201       0.7574E-1     4.443       0.6112E-3     1.692   
   0.1301       0.8242E-1     4.451       0.6623E-3     1.693   
   0.1401       0.8920E-1     4.459       0.7134E-3     1.693   
   0.1502       0.9608E-1     4.468       0.7645E-3     1.693   
   0.1602       0.1031        4.478       0.8157E-3     1.693   
   0.1702       0.1102        4.488       0.8668E-3     1.693   
   0.1802       0.1174        4.499       0.9181E-3     1.693   
   0.1902       0.1248        4.511       0.9694E-3     1.693   
   0.2002       0.1323        4.523       0.1021E-2     1.693   
   0.2102       0.1400        4.536       0.1072E-2     1.693   
   0.2202       0.1478        4.550       0.1123E-2     1.693   
   0.2302       0.1558        4.564       0.1175E-2     1.693   
   0.2402       0.1641        4.580       0.1226E-2     1.694   
   0.2503       0.1725        4.596       0.1278E-2     1.694   
   0.2603       0.1811        4.613       0.1330E-2     1.694   
   0.2703       0.1900        4.631       0.1381E-2     1.694   
   0.2803       0.1991        4.649       0.1433E-2     1.694   
   0.2903       0.2085        4.669       0.1485E-2     1.694   
   0.3003       0.2182        4.689       0.1537E-2     1.694   
   0.3103       0.2281        4.710       0.1589E-2     1.695   
   0.3203       0.2384        4.732       0.1641E-2     1.695   
   0.3303       0.2490        4.756       0.1693E-2     1.695   
   0.3403       0.2600        4.780       0.1745E-2     1.695   
   0.3504       0.2713        4.805       0.1797E-2     1.695   
   0.3604       0.2831        4.831       0.1850E-2     1.695   
   0.3704       0.2953        4.859       0.1902E-2     1.696   
   0.3804       0.3079        4.887       0.1955E-2     1.696   
   0.3904       0.3210        4.917       0.2007E-2     1.696   
   0.4004       0.3347        4.948       0.2060E-2     1.696   
   0.4104       0.3489        4.980       0.2113E-2     1.696   
   0.4204       0.3636        5.014       0.2166E-2     1.697   
   0.4304       0.3791        5.049       0.2219E-2     1.697   
   0.4404       0.3951        5.085       0.2272E-2     1.697   
   0.4505       0.4119        5.123       0.2325E-2     1.697   
   0.4605       0.4295        5.162       0.2378E-2     1.698   
   0.4705       0.4479        5.203       0.2432E-2     1.698   
   0.4805       0.4671        5.246       0.2485E-2     1.698   
   0.4905       0.4873        5.290       0.2539E-2     1.698   
   0.5005       0.5085        5.337       0.2592E-2     1.699   
   0.5105       0.5308        5.385       0.2646E-2     1.699   
   0.5205       0.5542        5.435       0.2700E-2     1.699   
   0.5305       0.5789        5.487       0.2754E-2     1.699   
   0.5405       0.6049        5.541       0.2809E-2     1.700   
   0.5506       0.6324        5.598       0.2863E-2     1.700   
   0.5606       0.6614        5.657       0.2918E-2     1.700   
   0.5706       0.6922        5.719       0.2972E-2     1.700   
   0.5806       0.7247        5.783       0.3027E-2     1.701   
   0.5906       0.7592        5.850       0.3082E-2     1.701   
   0.6006       0.7959        5.920       0.3137E-2     1.701   
   0.6106       0.8349        5.993       0.3192E-2     1.702   
   0.6206       0.8765        6.069       0.3248E-2     1.702   
   0.6306       0.9208        6.148       0.3303E-2     1.702   
   0.6406       0.9681        6.231       0.3359E-2     1.703   
   0.6507        1.019        6.318       0.3415E-2     1.703   
   0.6607        1.073        6.409       0.3471E-2     1.703   
   0.6707        1.131        6.504       0.3527E-2     1.704   
   0.6807        1.194        6.604       0.3583E-2     1.704   
   0.6907        1.261        6.708       0.3640E-2     1.704   
   0.7007        1.334        6.817       0.3696E-2     1.705   
   0.7107        1.412        6.932       0.3753E-2     1.705   
   0.7207        1.497        7.052       0.3810E-2     1.706   
   0.7307        1.590        7.177       0.3867E-2     1.706   
   0.7407        1.690        7.309       0.3925E-2     1.706   
   0.7508        1.799        7.447       0.3982E-2     1.707   
   0.7608        1.918        7.592       0.4040E-2     1.707   
   0.7708        2.049        7.744       0.4098E-2     1.708   
   0.7808        2.192        7.903       0.4156E-2     1.708   
   0.7908        2.349        8.069       0.4215E-2     1.708   
   0.8008        2.522        8.243       0.4273E-2     1.709   
   0.8108        2.713        8.425       0.4332E-2     1.709   
   0.8208        2.925        8.615       0.4391E-2     1.710   
   0.8308        3.160        8.811       0.4450E-2     1.710   
   0.8408        3.422        9.015       0.4510E-2     1.711   
   0.8509        3.713        9.225       0.4569E-2     1.711   
   0.8609        4.039        9.439       0.4629E-2     1.711   
   0.8709        4.405        9.657       0.4689E-2     1.712   
   0.8809        4.815        9.874       0.4750E-2     1.712   
   0.8909        5.275        10.09       0.4810E-2     1.713   
   0.9009        5.794        10.29       0.4871E-2     1.713   
   0.9109        6.377        10.48       0.4932E-2     1.714   
   0.9209        7.033        10.63       0.4993E-2     1.714   
   0.9309        7.767        10.75       0.5055E-2     1.715   
   0.9409        8.588        10.81       0.5117E-2     1.715   
   0.9510        9.496        10.78       0.5179E-2     1.716   
   0.9610        10.49        10.65       0.5241E-2     1.716   
   0.9710        11.57        10.37       0.5303E-2     1.717   
   0.9810        12.70        9.920       0.5366E-2     1.717   
   0.9910        13.85        9.252       0.5429E-2     1.718   
    1.001        14.98        8.340       0.5493E-2     1.719   
    1.011        16.01        7.171       0.5556E-2     1.719   
    1.021        16.86        5.755       0.5620E-2     1.720   
    1.031        17.46        4.136       0.5684E-2     1.720   
    1.041        17.73        2.389       0.5749E-2     1.721   
    1.051        17.66       0.6112       0.5814E-2     1.721   
    1.061        17.24       -1.093       0.5879E-2     1.722   
    1.071        16.53       -2.633       0.5944E-2     1.723   
    1.081        15.59       -3.947       0.6010E-2     1.723   
    1.091        14.51       -5.006       0.6076E-2     1.724   
    1.101        13.37       -5.812       0.6142E-2     1.724   
    1.111        12.22       -6.385       0.6209E-2     1.725   
    1.121        11.11       -6.759       0.6276E-2     1.726   
    1.131        10.07       -6.969       0.6343E-2     1.726   
    1.141        9.108       -7.052       0.6411E-2     1.727   
    1.151        8.238       -7.038       0.6479E-2     1.727   
    1.161        7.455       -6.952       0.6547E-2     1.728   
    1.171        6.756       -6.815       0.6616E-2     1.729   
      1.1812       6.1324      -6.6421       0.0067       1.7295
      1.1912       5.5784      -6.4466       0.0068       1.7301
      1.2012       5.0861      -6.2372       0.0068       1.7308
      1.2112       4.6484      -6.0205       0.0069       1.7315
      1.2212       4.2589      -5.8015       0.0070       1.7322
      1.2312       3.9116      -5.5837       0.0070       1.7329
      1.2412       3.6015      -5.3695       0.0071       1.7336
      1.2513       3.3239      -5.1605       0.0072       1.7343
      1.2613       3.0749      -4.9580       0.0072       1.7350
      1.2713       2.8509      -4.7625       0.0073       1.7358
      1.2813       2.6490      -4.5745       0.0074       1.7365
      1.2913       2.4666      -4.3940       0.0075       1.7372
      1.3013       2.3013      -4.2211       0.0075       1.7380
      1.3113       2.1512      -4.0557       0.0076       1.7387
      1.3213       2.0146      -3.8976       0.0077       1.7395
      1.3313       1.8899      -3.7465       0.0078       1.7403
      1.3413       1.7760      -3.6022       0.0078       1.7411
      1.3514       1.6716      -3.4643       0.0079       1.7418
      1.3614       1.5758      -3.3326       0.0080       1.7426
      1.3714       1.4876      -3.2068       0.0081       1.7434
      1.3814       1.4063      -3.0865       0.0081       1.7443
      1.3914       1.3313      -2.9715       0.0082       1.7451
      1.4014       1.2618      -2.8615       0.0083       1.7459
      1.4114       1.1975      -2.7563       0.0084       1.7467
      1.4214       1.1378      -2.6556       0.0085       1.7476
      1.4314       1.0823      -2.5590       0.0085       1.7484
      1.4414       1.0306      -2.4666       0.0086       1.7493
      1.4515       0.9823      -2.3779       0.0087       1.7501
      1.4615       0.9373      -2.2928       0.0088       1.7510
      1.4715       0.8952      -2.2111       0.0089       1.7519
      1.4815       0.8558      -2.1326       0.0089       1.7528
      1.4915       0.8188      -2.0572       0.0090       1.7537
      1.5015       0.7841      -1.9848       0.0091       1.7546
      1.5115       0.7515      -1.9150       0.0092       1.7555
      1.5215       0.7208      -1.8479       0.0093       1.7564
      1.5315       0.6919      -1.7832       0.0094       1.7574
      1.5415       0.6646      -1.7209       0.0094       1.7583
      1.5516       0.6389      -1.6608       0.0095       1.7592
      1.5616       0.6146      -1.6029       0.0096       1.7602
      1.5716       0.5915      -1.5470       0.0097       1.7612
      1.5816       0.5698      -1.4930       0.0098       1.7621
      1.5916       0.5491      -1.4408       0.0099       1.7631
      1.6016       0.5295      -1.3904       0.0100       1.7641
     1.61161      0.51095     -1.34167      0.01006      1.76511
     1.62162      0.49330     -1.29453      0.01015      1.76612
     1.63163      0.47651     -1.24891      0.01024      1.76714
     1.64164      0.46053     -1.20474      0.01033      1.76817
     1.65165      0.44532     -1.16195      0.01042      1.76920
     1.66166      0.43082     -1.12050      0.01051      1.77025
     1.67167      0.41700     -1.08032      0.01060      1.77130
     1.68168      0.40380     -1.04135      0.01070      1.77237
     1.69169      0.39120     -1.00355      0.01079      1.77344
     1.70170      0.37917     -0.96686      0.01089      1.77452
     1.71171      0.36765     -0.93125      0.01098      1.77561
     1.72172      0.35664     -0.89666      0.01108      1.77672
     1.73173      0.34610     -0.86306      0.01118      1.77783
     1.74174      0.33600     -0.83040      0.01127      1.77895
     1.75175      0.32632     -0.79865      0.01137      1.78008
     1.76176      0.31704     -0.76778      0.01147      1.78122
     1.77177      0.30813     -0.73774      0.01157      1.78237
     1.78178      0.29958     -0.70851      0.01167      1.78353
     1.79179      0.29137     -0.68006      0.01177      1.78470
     1.80180      0.28348     -0.65236      0.01188      1.78588
     1.81181      0.27590     -0.62538      0.01198      1.78707
     1.82182      0.26860     -0.59909      0.01208      1.78828
     1.83183      0.26158     -0.57347      0.01219      1.78949
     1.84184      0.25483     -0.54849      0.01229      1.79071
     1.85185      0.24832     -0.52414      0.01240      1.79194
     1.86186      0.24205     -0.50038      0.01251      1.79319
     1.87187      0.23600     -0.47721      0.01261      1.79444
     1.88188      0.23017     -0.45460      0.01272      1.79571
     1.89189      0.22455     -0.43252      0.01283      1.79698
     1.90190      0.21912     -0.41097      0.01294      1.79827
     1.91191      0.21388     -0.38992      0.01306      1.79957
     1.92192      0.20882     -0.36936      0.01317      1.80088
     1.93193      0.20393     -0.34927      0.01328      1.80220
     1.94194      0.19921     -0.32964      0.01340      1.80353
     1.95195      0.19464     -0.31045      0.01351      1.80487
     1.96196      0.19023     -0.29168      0.01363      1.80623
     1.97197      0.18595     -0.27333      0.01374      1.80760
     1.98198      0.18182     -0.25538      0.01386      1.80897
     1.99199      0.17781     -0.23782      0.01398      1.81036
     2.00200      0.17394     -0.22064      0.01410      1.81177
     2.01201      0.17019     -0.20382      0.01422      1.81318
     2.02202      0.16655     -0.18736      0.01434      1.81461
     2.03203      0.16302     -0.17124      0.01447      1.81605
     2.04204      0.15961     -0.15545      0.01459      1.81750
     2.05205      0.15630     -0.13998      0.01472      1.81896
     2.06206      0.15309     -0.12483      0.01484      1.82044
     2.07207      0.14997     -0.10999      0.01497      1.82192
     2.08208      0.14695     -0.09544      0.01510      1.82343
     2.09209      0.14401     -0.08118      0.01523      1.82494
     2.10210      0.14117     -0.06719      0.01536      1.82647
     2.11211      0.13840     -0.05348      0.01549      1.82801
     2.12212      0.13572     -0.04004      0.01563      1.82956
     2.13213      0.13311     -0.02685      0.01576      1.83113
     2.14214      0.13058     -0.01391      0.01590      1.83271
    2.152       0.1281       -.1221E-2    0.1603E-1     1.834   
     2.16216      0.12573      0.01123      0.01617      1.83591
     2.17217      0.12341      0.02345      0.01631      1.83753
     2.18218      0.12114      0.03545      0.01645      1.83917
     2.19219      0.11894      0.04722      0.01660      1.84082
     2.20220      0.11679      0.05879      0.01674      1.84248
     2.21221      0.11469      0.07014      0.01688      1.84416
     2.22222      0.11265      0.08130      0.01703      1.84585
     2.23223      0.11066      0.09226      0.01718      1.84756
     2.24224      0.10872      0.10304      0.01733      1.84928
     2.25225      0.10683      0.11363      0.01748      1.85102
     2.26226      0.10498      0.12404      0.01763      1.85277
     2.27227      0.10318      0.13428      0.01778      1.85454
     2.28228      0.10143      0.14436      0.01794      1.85632
     2.29229      0.09973      0.15426      0.01809      1.85812
     2.30230      0.09807      0.16401      0.01825      1.85993
     2.31231      0.09645      0.17359      0.01841      1.86176
     2.32232      0.09487      0.18302      0.01857      1.86361
     2.33233      0.09333      0.19231      0.01874      1.86547
     2.34234      0.09184      0.20144      0.01890      1.86735
     2.35235      0.09038      0.21043      0.01907      1.86924
     2.36236      0.08895      0.21929      0.01923      1.87115
     2.37237      0.08757      0.22800      0.01940      1.87308
     2.38238      0.08622      0.23658      0.01957      1.87503
     2.39239      0.08490      0.24503      0.01975      1.87699
     2.40240      0.08361      0.25336      0.01992      1.87897
     2.41241      0.08236      0.26156      0.02010      1.88097
     2.42242      0.08114      0.26964      0.02028      1.88298
     2.43243      0.07995      0.27760      0.02046      1.88501
     2.44244      0.07879      0.28545      0.02064      1.88706
     2.45245      0.07765      0.29318      0.02082      1.88913
     2.46246      0.07655      0.30080      0.02101      1.89122
     2.47247      0.07547      0.30832      0.02120      1.89332
     2.48248      0.07442      0.31573      0.02139      1.89545
     2.49249      0.07339      0.32305      0.02158      1.89759
     2.50250      0.07240      0.33026      0.02177      1.89976
     2.51251      0.07142      0.33737      0.02197      1.90194
     2.52252      0.07047      0.34439      0.02217      1.90414
     2.53253      0.06955      0.35132      0.02237      1.90636
     2.54254      0.06864      0.35816      0.02257      1.90860
     2.55255      0.06777      0.36491      0.02278      1.91086
     2.56256      0.06691      0.37157      0.02298      1.91315
     2.57257      0.06608      0.37815      0.02319      1.91545
     2.58258      0.06526      0.38465      0.02340      1.91777
     2.59259      0.06447      0.39107      0.02362      1.92012
     2.60260      0.06371      0.39742      0.02384      1.92249
     2.61261      0.06296      0.40369      0.02405      1.92488
     2.62262      0.06223      0.40988      0.02428      1.92729
     2.63263      0.06153      0.41601      0.02450      1.92972
     2.64264      0.06084      0.42206      0.02473      1.93217
     2.65265      0.06017      0.42805      0.02496      1.93465
     2.66266      0.05953      0.43398      0.02519      1.93715
     2.67267      0.05890      0.43984      0.02543      1.93968
     2.68268      0.05830      0.44564      0.02566      1.94222
     2.69269      0.05771      0.45138      0.02590      1.94480
     2.70270      0.05715      0.45706      0.02615      1.94739
     2.71271      0.05660      0.46268      0.02639      1.95001
     2.72272      0.05608      0.46825      0.02664      1.95266
     2.73273      0.05557      0.47377      0.02690      1.95532
     2.74274      0.05508      0.47924      0.02715      1.95802
     2.75275      0.05462      0.48467      0.02741      1.96074
     2.76276      0.05418      0.49004      0.02767      1.96349
     2.77277      0.05375      0.49537      0.02794      1.96626
     2.78278      0.05335      0.50066      0.02821      1.96906
     2.79279      0.05297      0.50590      0.02848      1.97188
     2.80280      0.05261      0.51111      0.02875      1.97474
     2.81281      0.05227      0.51628      0.02903      1.97762
     2.82282      0.05196      0.52142      0.02931      1.98052
     2.83283      0.05167      0.52652      0.02960      1.98346
     2.84284      0.05140      0.53160      0.02989      1.98643
     2.85285      0.05117      0.53664      0.03018      1.98942
     2.86286      0.05095      0.54166      0.03048      1.99244
     2.87287      0.05077      0.54665      0.03078      1.99550
     2.88288      0.05061      0.55163      0.03108      1.99858
     2.89289      0.05048      0.55658      0.03139      2.00169
