#                                                           
# :::   :::   :::     ::::    ::::  :::::::::   ::::::::    
# :+:   :+: :+: :+:   +:+:+: :+:+:+ :+:    :+: :+:    :+:   
#  +:+ +:+ +:+   +:+  +:+ +:+:+ +:+ +:+    +:+ +:+    +:+   
#   +#++: +#++:++#++: +#+  +:+  +#+ +#++:++#+  +#+    +:+   
#    +#+  +#+     +#+ +#+       +#+ +#+    +#+ +#+    +#+   
#    #+#  #+#     #+# #+#       #+# #+#    #+# #+#    #+#   
#    ###  ###     ### ###       ### #########   ########    
#                                                           
#             GPL Version 4.0.0 Revision 4281               
#                    MPI+OpenMP Build                       
#                http://www.yambo-code.org                  
#
# Reflectivity @ Q(1) [q->0 direction] :0.1000E-4  0.000     0.000   
#
#
# - Energies      are +Vosko, Wilk & Nusair (VWN5_RPA)(C)
# - Wavefunctions are +Vosko, Wilk & Nusair (VWN5_RPA)(C)
#
# - The Green`s function is causal -
# - Using the Length Gauge -
# - [r,Vnl] is *NOT* included -
#
#   BSK|Identifier              :8897
#      |Dimension               :144
#      |Bands                   :1 - 40
#      |Exchange           [res]: yes
#      |Correlation        [res]: no
#      |Kernel`s coupling       : yes
#      |Exchange           [cpl]: yes
#      |W interaction is bare   : no
#      |Correlation        [cpl]: no
#      |ALDA kernel in R-space  : yes
#      |RL vectors    [exchange]:50301
#      |E/h energy range    [ev]:-1.000000 - -1.000000
#      |Coupling range     [o/o]: 100.0000 -  100.0000
#  
#   Haydock|Accuracy (requested) [o/o]:0.1000E-2
#          |Accuracy (reached)   [o/o]:0.3187E-3
#          |Iteration                 :58
#
#  E/ev[1]    eel /Im[2] eel /Re[3] eel0/Im[4] eel0/Re[5] eel`/Im[6] eel`/Re[7]
#
  6.000     0.2217E-3  -.9866     0.9296E-3  -.9721     0.2217E-3  -.9866   
  6.015     0.2237E-3  -.9865     0.9419E-3  -.9720     0.2237E-3  -.9865   
  6.030     0.2257E-3  -.9865     0.9544E-3  -.9718     0.2257E-3  -.9865   
  6.045     0.2277E-3  -.9865     0.9671E-3  -.9717     0.2277E-3  -.9865   
  6.060     0.2298E-3  -.9864     0.9801E-3  -.9715     0.2298E-3  -.9864   
  6.075     0.2318E-3  -.9864     0.9934E-3  -.9714     0.2318E-3  -.9864   
  6.090     0.2339E-3  -.9864     0.1007E-2  -.9712     0.2339E-3  -.9864   
  6.105     0.2361E-3  -.9863     0.1021E-2  -.9711     0.2361E-3  -.9863   
  6.120     0.2382E-3  -.9863     0.1035E-2  -.9709     0.2382E-3  -.9863   
  6.135     0.2404E-3  -.9863     0.1049E-2  -.9708     0.2404E-3  -.9863   
  6.150     0.2427E-3  -.9862     0.1064E-2  -.9706     0.2427E-3  -.9862   
  6.165     0.2450E-3  -.9862     0.1079E-2  -.9705     0.2450E-3  -.9862   
  6.180     0.2473E-3  -.9861     0.1094E-2  -.9703     0.2473E-3  -.9861   
  6.195     0.2496E-3  -.9861     0.1110E-2  -.9701     0.2496E-3  -.9861   
  6.211     0.2520E-3  -.9861     0.1126E-2  -.9700     0.2520E-3  -.9861   
  6.226     0.2544E-3  -.9860     0.1142E-2  -.9698     0.2544E-3  -.9860   
  6.241     0.2569E-3  -.9860     0.1159E-2  -.9696     0.2569E-3  -.9860   
  6.256     0.2594E-3  -.9860     0.1176E-2  -.9694     0.2594E-3  -.9860   
  6.271     0.2619E-3  -.9859     0.1193E-2  -.9693     0.2619E-3  -.9859   
  6.286     0.2645E-3  -.9859     0.1211E-2  -.9691     0.2645E-3  -.9859   
  6.301     0.2671E-3  -.9858     0.1229E-2  -.9689     0.2671E-3  -.9858   
  6.316     0.2698E-3  -.9858     0.1248E-2  -.9687     0.2698E-3  -.9858   
  6.331     0.2725E-3  -.9858     0.1267E-2  -.9685     0.2725E-3  -.9858   
  6.346     0.2752E-3  -.9857     0.1286E-2  -.9683     0.2752E-3  -.9857   
  6.361     0.2781E-3  -.9857     0.1306E-2  -.9681     0.2781E-3  -.9857   
  6.376     0.2809E-3  -.9856     0.1327E-2  -.9679     0.2809E-3  -.9856   
  6.391     0.2838E-3  -.9856     0.1348E-2  -.9677     0.2838E-3  -.9856   
  6.406     0.2868E-3  -.9855     0.1369E-2  -.9675     0.2868E-3  -.9855   
  6.421     0.2898E-3  -.9855     0.1391E-2  -.9673     0.2898E-3  -.9855   
  6.436     0.2929E-3  -.9855     0.1413E-2  -.9671     0.2929E-3  -.9855   
  6.451     0.2960E-3  -.9854     0.1437E-2  -.9669     0.2960E-3  -.9854   
  6.466     0.2992E-3  -.9854     0.1460E-2  -.9667     0.2992E-3  -.9854   
  6.481     0.3024E-3  -.9853     0.1484E-2  -.9665     0.3024E-3  -.9853   
  6.496     0.3057E-3  -.9853     0.1509E-2  -.9663     0.3057E-3  -.9853   
  6.511     0.3091E-3  -.9852     0.1535E-2  -.9660     0.3091E-3  -.9852   
  6.526     0.3126E-3  -.9852     0.1561E-2  -.9658     0.3126E-3  -.9852   
  6.541     0.3161E-3  -.9851     0.1587E-2  -.9656     0.3161E-3  -.9851   
  6.556     0.3197E-3  -.9851     0.1615E-2  -.9653     0.3197E-3  -.9851   
  6.571     0.3233E-3  -.9850     0.1643E-2  -.9651     0.3233E-3  -.9850   
  6.586     0.3270E-3  -.9850     0.1672E-2  -.9648     0.3270E-3  -.9850   
  6.602     0.3309E-3  -.9849     0.1702E-2  -.9646     0.3309E-3  -.9849   
  6.617     0.3347E-3  -.9849     0.1733E-2  -.9643     0.3347E-3  -.9849   
  6.632     0.3387E-3  -.9848     0.1764E-2  -.9641     0.3387E-3  -.9848   
  6.647     0.3428E-3  -.9848     0.1796E-2  -.9638     0.3428E-3  -.9848   
  6.662     0.3469E-3  -.9847     0.1830E-2  -.9635     0.3469E-3  -.9847   
  6.677     0.3512E-3  -.9847     0.1864E-2  -.9633     0.3512E-3  -.9847   
  6.692     0.3555E-3  -.9846     0.1899E-2  -.9630     0.3555E-3  -.9846   
  6.707     0.3599E-3  -.9846     0.1935E-2  -.9627     0.3599E-3  -.9846   
  6.722     0.3645E-3  -.9845     0.1973E-2  -.9624     0.3645E-3  -.9845   
  6.737     0.3691E-3  -.9845     0.2011E-2  -.9621     0.3691E-3  -.9845   
  6.752     0.3739E-3  -.9844     0.2051E-2  -.9618     0.3739E-3  -.9844   
  6.767     0.3788E-3  -.9844     0.2091E-2  -.9615     0.3788E-3  -.9844   
  6.782     0.3838E-3  -.9843     0.2133E-2  -.9612     0.3838E-3  -.9843   
  6.797     0.3889E-3  -.9842     0.2177E-2  -.9608     0.3889E-3  -.9842   
  6.812     0.3941E-3  -.9842     0.2222E-2  -.9605     0.3941E-3  -.9842   
  6.827     0.3995E-3  -.9841     0.2268E-2  -.9602     0.3995E-3  -.9841   
  6.842     0.4050E-3  -.9841     0.2316E-2  -.9598     0.4050E-3  -.9841   
  6.857     0.4107E-3  -.9840     0.2365E-2  -.9595     0.4107E-3  -.9840   
  6.872     0.4165E-3  -.9839     0.2416E-2  -.9591     0.4165E-3  -.9839   
  6.887     0.4225E-3  -.9839     0.2469E-2  -.9588     0.4225E-3  -.9839   
  6.902     0.4286E-3  -.9838     0.2523E-2  -.9584     0.4286E-3  -.9838   
  6.917     0.4350E-3  -.9838     0.2579E-2  -.9580     0.4350E-3  -.9838   
  6.932     0.4415E-3  -.9837     0.2638E-2  -.9576     0.4415E-3  -.9837   
  6.947     0.4481E-3  -.9836     0.2698E-2  -.9572     0.4481E-3  -.9836   
  6.962     0.4550E-3  -.9836     0.2761E-2  -.9568     0.4550E-3  -.9836   
  6.977     0.4621E-3  -.9835     0.2826E-2  -.9564     0.4621E-3  -.9835   
  6.992     0.4694E-3  -.9834     0.2893E-2  -.9560     0.4694E-3  -.9834   
  7.008     0.4770E-3  -.9833     0.2963E-2  -.9556     0.4770E-3  -.9833   
  7.023     0.4847E-3  -.9833     0.3036E-2  -.9551     0.4847E-3  -.9833   
  7.038     0.4928E-3  -.9832     0.3111E-2  -.9547     0.4928E-3  -.9832   
  7.053     0.5011E-3  -.9831     0.3190E-2  -.9542     0.5011E-3  -.9831   
  7.068     0.5096E-3  -.9831     0.3272E-2  -.9537     0.5096E-3  -.9831   
  7.083     0.5185E-3  -.9830     0.3357E-2  -.9532     0.5185E-3  -.9830   
  7.098     0.5276E-3  -.9829     0.3445E-2  -.9527     0.5276E-3  -.9829   
  7.113     0.5371E-3  -.9828     0.3538E-2  -.9522     0.5371E-3  -.9828   
  7.128     0.5469E-3  -.9827     0.3634E-2  -.9517     0.5469E-3  -.9827   
  7.143     0.5571E-3  -.9827     0.3734E-2  -.9511     0.5571E-3  -.9827   
  7.158     0.5677E-3  -.9826     0.3839E-2  -.9506     0.5677E-3  -.9826   
  7.173     0.5787E-3  -.9825     0.3949E-2  -.9500     0.5787E-3  -.9825   
  7.188     0.5901E-3  -.9824     0.4064E-2  -.9494     0.5901E-3  -.9824   
  7.203     0.6019E-3  -.9823     0.4184E-2  -.9488     0.6019E-3  -.9823   
  7.218     0.6142E-3  -.9822     0.4311E-2  -.9482     0.6142E-3  -.9822   
  7.233     0.6271E-3  -.9821     0.4443E-2  -.9475     0.6271E-3  -.9821   
  7.248     0.6405E-3  -.9820     0.4582E-2  -.9469     0.6405E-3  -.9820   
  7.263     0.6544E-3  -.9819     0.4728E-2  -.9462     0.6544E-3  -.9819   
  7.278     0.6690E-3  -.9818     0.4882E-2  -.9455     0.6690E-3  -.9818   
  7.293     0.6842E-3  -.9817     0.5044E-2  -.9448     0.6842E-3  -.9817   
  7.308     0.7002E-3  -.9816     0.5215E-2  -.9440     0.7002E-3  -.9816   
  7.323     0.7169E-3  -.9815     0.5395E-2  -.9432     0.7169E-3  -.9815   
  7.338     0.7344E-3  -.9814     0.5586E-2  -.9424     0.7344E-3  -.9814   
  7.353     0.7528E-3  -.9813     0.5788E-2  -.9416     0.7528E-3  -.9813   
  7.368     0.7721E-3  -.9812     0.6002E-2  -.9407     0.7721E-3  -.9812   
  7.383     0.7924E-3  -.9811     0.6230E-2  -.9399     0.7924E-3  -.9811   
  7.398     0.8137E-3  -.9810     0.6472E-2  -.9389     0.8137E-3  -.9810   
  7.414     0.8363E-3  -.9809     0.6730E-2  -.9380     0.8363E-3  -.9809   
  7.429     0.8601E-3  -.9807     0.7005E-2  -.9370     0.8601E-3  -.9807   
  7.444     0.8853E-3  -.9806     0.7299E-2  -.9360     0.8853E-3  -.9806   
  7.459     0.9120E-3  -.9805     0.7615E-2  -.9349     0.9120E-3  -.9805   
  7.474     0.9403E-3  -.9803     0.7954E-2  -.9338     0.9403E-3  -.9803   
  7.489     0.9704E-3  -.9802     0.8318E-2  -.9326     0.9704E-3  -.9802   
  7.504     0.1002E-2  -.9800     0.8712E-2  -.9314     0.1002E-2  -.9800   
  7.519     0.1036E-2  -.9799     0.9137E-2  -.9302     0.1036E-2  -.9799   
  7.534     0.1073E-2  -.9797     0.9599E-2  -.9288     0.1073E-2  -.9797   
  7.549     0.1112E-2  -.9796     0.1010E-1  -.9275     0.1112E-2  -.9796   
  7.564     0.1154E-2  -.9794     0.1065E-1  -.9260     0.1154E-2  -.9794   
  7.579     0.1198E-2  -.9793     0.1125E-1  -.9245     0.1198E-2  -.9793   
  7.594     0.1247E-2  -.9791     0.1191E-1  -.9229     0.1247E-2  -.9791   
  7.609     0.1299E-2  -.9789     0.1264E-1  -.9213     0.1299E-2  -.9789   
  7.624     0.1355E-2  -.9787     0.1345E-1  -.9195     0.1355E-2  -.9787   
  7.639     0.1416E-2  -.9785     0.1435E-1  -.9177     0.1416E-2  -.9785   
  7.654     0.1483E-2  -.9783     0.1535E-1  -.9157     0.1483E-2  -.9783   
  7.669     0.1555E-2  -.9781     0.1648E-1  -.9137     0.1555E-2  -.9781   
  7.684     0.1634E-2  -.9779     0.1776E-1  -.9116     0.1634E-2  -.9779   
  7.699     0.1721E-2  -.9776     0.1922E-1  -.9093     0.1721E-2  -.9776   
  7.714     0.1816E-2  -.9774     0.2088E-1  -.9069     0.1816E-2  -.9774   
  7.729     0.1922E-2  -.9771     0.2280E-1  -.9045     0.1922E-2  -.9771   
  7.744     0.2038E-2  -.9769     0.2502E-1  -.9019     0.2038E-2  -.9769   
  7.759     0.2168E-2  -.9766     0.2760E-1  -.8993     0.2168E-2  -.9766   
  7.774     0.2313E-2  -.9763     0.3062E-1  -.8966     0.2313E-2  -.9763   
  7.789     0.2476E-2  -.9760     0.3416E-1  -.8940     0.2476E-2  -.9760   
  7.805     0.2659E-2  -.9757     0.3832E-1  -.8915     0.2659E-2  -.9757   
  7.820     0.2866E-2  -.9753     0.4316E-1  -.8893     0.2866E-2  -.9753   
  7.835     0.3102E-2  -.9749     0.4875E-1  -.8877     0.3102E-2  -.9749   
  7.850     0.3371E-2  -.9745     0.5502E-1  -.8871     0.3371E-2  -.9745   
  7.865     0.3681E-2  -.9741     0.6177E-1  -.8877     0.3681E-2  -.9741   
  7.880     0.4038E-2  -.9737     0.6851E-1  -.8900     0.4038E-2  -.9737   
  7.895     0.4454E-2  -.9732     0.7449E-1  -.8941     0.4454E-2  -.9732   
  7.910     0.4940E-2  -.9728     0.7882E-1  -.8997     0.4940E-2  -.9728   
  7.925     0.5512E-2  -.9723     0.8079E-1  -.9061     0.5512E-2  -.9723   
  7.940     0.6188E-2  -.9718     0.8026E-1  -.9119     0.6188E-2  -.9718   
  7.955     0.6990E-2  -.9713     0.7774E-1  -.9163     0.6990E-2  -.9713   
  7.970     0.7945E-2  -.9708     0.7412E-1  -.9185     0.7945E-2  -.9708   
    7.9850     0.0091    -0.9703     0.0703    -0.9187     0.0091    -0.9703
   8.00000    0.01043   -0.96999    0.06695   -0.91704    0.01043   -0.96999
   8.01504    0.01202   -0.96982    0.06443   -0.91393    0.01202   -0.96982
   8.03008    0.01386   -0.96991    0.06293   -0.90975    0.01386   -0.96991
   8.04511    0.01590   -0.97042    0.06251   -0.90477    0.01590   -0.97042
   8.06015    0.01805   -0.97147    0.06319   -0.89918    0.01805   -0.97147
   8.07519    0.02010   -0.97321    0.06497   -0.89312    0.02010   -0.97321
   8.09023    0.02175   -0.97563    0.06789   -0.88667    0.02175   -0.97563
   8.10526    0.02266   -0.97860    0.07202   -0.87989    0.02266   -0.97860
   8.12030    0.02264   -0.98175    0.07748   -0.87283    0.02264   -0.98175
   8.13534    0.02168   -0.98466    0.08443   -0.86556    0.02168   -0.98466
   8.15038    0.02003   -0.98701    0.09311   -0.85818    0.02003   -0.98701
   8.16541    0.01801   -0.98865    0.10380   -0.85087    0.01801   -0.98865
   8.18045    0.01592   -0.98962    0.11687   -0.84390    0.01592   -0.98962
   8.19549    0.01394   -0.99005    0.13274   -0.83772    0.01394   -0.99005
   8.21053    0.01218   -0.99007    0.15183   -0.83302    0.01218   -0.99007
   8.22556    0.01068   -0.98983    0.17450   -0.83086    0.01068   -0.98983
    8.2406     0.0094    -0.9894     0.2008    -0.8327     0.0094    -0.9894
    8.2556     0.0084    -0.9889     0.2303    -0.8405     0.0084    -0.9889
  8.271     0.7487E-2  -.9884     0.2615     -.8565     0.7486E-2  -.9884   
  8.286     0.6774E-2  -.9878     0.2912     -.8824     0.6774E-2  -.9878   
  8.301     0.6193E-2  -.9872     0.3152     -.9186     0.6193E-2  -.9872   
  8.316     0.5722E-2  -.9866     0.3286     -.9627     0.5722E-2  -.9866   
  8.331     0.5346E-2  -.9860     0.3283     -1.010     0.5346E-2  -.9860   
  8.346     0.5052E-2  -.9855     0.3144     -1.053     0.5052E-2  -.9855   
  8.361     0.4830E-2  -.9849     0.2903     -1.089     0.4830E-2  -.9849   
  8.376     0.4675E-2  -.9844     0.2608     -1.114     0.4675E-2  -.9844   
  8.391     0.4582E-2  -.9839     0.2302     -1.130     0.4582E-2  -.9839   
  8.406     0.4550E-2  -.9834     0.2015     -1.137     0.4550E-2  -.9834   
  8.421     0.4579E-2  -.9829     0.1761     -1.139     0.4579E-2  -.9829   
  8.436     0.4670E-2  -.9825     0.1545     -1.137     0.4670E-2  -.9825   
  8.451     0.4823E-2  -.9821     0.1364     -1.133     0.4823E-2  -.9821   
  8.466     0.5036E-2  -.9818     0.1215     -1.128     0.5036E-2  -.9818   
  8.481     0.5299E-2  -.9815     0.1091     -1.123     0.5299E-2  -.9815   
  8.496     0.5588E-2  -.9814     0.9863E-1  -1.117     0.5589E-2  -.9814   
  8.511     0.5866E-2  -.9813     0.8954E-1  -1.112     0.5866E-2  -.9813   
  8.526     0.6078E-2  -.9814     0.8148E-1  -1.107     0.6078E-2  -.9814   
  8.541     0.6172E-2  -.9816     0.7426E-1  -1.102     0.6173E-2  -.9816   
  8.556     0.6121E-2  -.9818     0.6784E-1  -1.097     0.6122E-2  -.9818   
  8.571     0.5937E-2  -.9819     0.6223E-1  -1.092     0.5937E-2  -.9819   
  8.586     0.5665E-2  -.9820     0.5744E-1  -1.087     0.5665E-2  -.9820   
  8.602     0.5359E-2  -.9819     0.5345E-1  -1.081     0.5359E-2  -.9819   
  8.617     0.5068E-2  -.9817     0.5023E-1  -1.076     0.5068E-2  -.9817   
  8.632     0.4821E-2  -.9814     0.4774E-1  -1.071     0.4821E-2  -.9814   
  8.647     0.4634E-2  -.9811     0.4592E-1  -1.067     0.4634E-2  -.9811   
  8.662     0.4513E-2  -.9807     0.4475E-1  -1.062     0.4512E-2  -.9807   
  8.677     0.4457E-2  -.9804     0.4418E-1  -1.058     0.4456E-2  -.9804   
  8.692     0.4465E-2  -.9800     0.4416E-1  -1.055     0.4464E-2  -.9800   
  8.707     0.4530E-2  -.9796     0.4457E-1  -1.052     0.4530E-2  -.9796   
  8.722     0.4646E-2  -.9793     0.4524E-1  -1.050     0.4647E-2  -.9793   
  8.737     0.4798E-2  -.9790     0.4590E-1  -1.048     0.4800E-2  -.9790   
  8.752     0.4969E-2  -.9788     0.4622E-1  -1.048     0.4972E-2  -.9788   
  8.767     0.5140E-2  -.9786     0.4593E-1  -1.048     0.5142E-2  -.9786   
  8.782     0.5295E-2  -.9785     0.4496E-1  -1.048     0.5295E-2  -.9785   
  8.797     0.5427E-2  -.9784     0.4341E-1  -1.048     0.5420E-2  -.9784   
  8.812     0.5525E-2  -.9783     0.4153E-1  -1.047     0.5513E-2  -.9783   
  8.827     0.5581E-2  -.9782     0.3956E-1  -1.046     0.5567E-2  -.9782   
  8.842     0.5579E-2  -.9782     0.3764E-1  -1.044     0.5572E-2  -.9782   
  8.857     0.5517E-2  -.9781     0.3586E-1  -1.043     0.5520E-2  -.9781   
  8.872     0.5407E-2  -.9780     0.3422E-1  -1.041     0.5420E-2  -.9779   
  8.887     0.5276E-2  -.9777     0.3278E-1  -1.039     0.5295E-2  -.9777   
  8.902     0.5154E-2  -.9774     0.3159E-1  -1.036     0.5174E-2  -.9774   
  8.917     0.5066E-2  -.9771     0.3069E-1  -1.034     0.5084E-2  -.9771   
  8.932     0.5029E-2  -.9766     0.3015E-1  -1.031     0.5042E-2  -.9766   
  8.947     0.5052E-2  -.9761     0.3000E-1  -1.028     0.5059E-2  -.9762   
  8.962     0.5141E-2  -.9756     0.3027E-1  -1.025     0.5141E-2  -.9757   
  8.977     0.5300E-2  -.9751     0.3096E-1  -1.022     0.5294E-2  -.9751   
  8.992     0.5536E-2  -.9746     0.3211E-1  -1.020     0.5521E-2  -.9746   
  9.008     0.5853E-2  -.9740     0.3370E-1  -1.017     0.5831E-2  -.9740   
  9.023     0.6262E-2  -.9734     0.3574E-1  -1.015     0.6232E-2  -.9735   
  9.038     0.6771E-2  -.9729     0.3816E-1  -1.013     0.6735E-2  -.9729   
  9.053     0.7390E-2  -.9724     0.4091E-1  -1.012     0.7351E-2  -.9724   
  9.068     0.8122E-2  -.9720     0.4390E-1  -1.011     0.8088E-2  -.9719   
  9.083     0.8966E-2  -.9716     0.4706E-1  -1.011     0.8949E-2  -.9716   
    9.0977     0.0099    -0.9715     0.0503    -1.0116     0.0099    -0.9714
   9.11278    0.01090   -0.97142    0.05354   -1.01304    0.01097   -0.97134
   9.12782    0.01191   -0.97156    0.05644   -1.01539    0.01203   -0.97153
   9.14286    0.01291   -0.97188    0.05863   -1.01864    0.01306   -0.97193
   9.15790    0.01388   -0.97237    0.05973   -1.02251    0.01400   -0.97251
   9.17293    0.01481   -0.97306    0.05952   -1.02653    0.01483   -0.97327
   9.18797    0.01565   -0.97400    0.05806   -1.03014    0.01553   -0.97419
   9.20301    0.01628   -0.97521    0.05571   -1.03290    0.01606   -0.97530
   9.21805    0.01655   -0.97662    0.05295   -1.03463    0.01632   -0.97658
   9.23308    0.01636   -0.97810    0.05022   -1.03545    0.01620   -0.97794
   9.24812    0.01571   -0.97942    0.04783   -1.03560    0.01565   -0.97921
   9.26316    0.01471   -0.98041    0.04583   -1.03541    0.01476   -0.98021
   9.27820    0.01353   -0.98099    0.04412   -1.03512    0.01366   -0.98086
   9.29323    0.01235   -0.98118    0.04253   -1.03481    0.01250   -0.98112
   9.30827    0.01127   -0.98105    0.04088   -1.03442    0.01142   -0.98105
   9.32331    0.01035   -0.98069    0.03915   -1.03376    0.01047   -0.98074
    9.3383     0.0096    -0.9802     0.0374    -1.0327     0.0097    -0.9802
  9.353     0.9042E-2  -.9795     0.3588E-1  -1.031     0.9100E-2  -.9796   
  9.368     0.8650E-2  -.9789     0.3469E-1  -1.029     0.8672E-2  -.9790   
  9.383     0.8418E-2  -.9781     0.3397E-1  -1.027     0.8404E-2  -.9783   
  9.398     0.8337E-2  -.9774     0.3382E-1  -1.025     0.8286E-2  -.9776   
  9.414     0.8399E-2  -.9768     0.3427E-1  -1.022     0.8312E-2  -.9769   
  9.429     0.8596E-2  -.9761     0.3538E-1  -1.020     0.8475E-2  -.9762   
  9.444     0.8917E-2  -.9756     0.3716E-1  -1.018     0.8769E-2  -.9756   
  9.459     0.9339E-2  -.9751     0.3963E-1  -1.016     0.9178E-2  -.9751   
    9.4737     0.0098    -0.9749     0.0427    -1.0148     0.0097    -0.9748
   9.48872    0.01029   -0.97475    0.04638   -1.01457    0.01019   -0.97457
   9.50376    0.01068   -0.97479    0.05023   -1.01557    0.01067   -0.97456
   9.51880    0.01092   -0.97491    0.05384   -1.01792    0.01102   -0.97469
   9.53384    0.01100   -0.97502    0.05662   -1.02153    0.01120   -0.97486
