#                                                           
#  **    **    **     ****     ****  ******     *******     
# //**  **    ****   /**/**   **/** /*////**   **/////**    
#  //****    **//**  /**//** ** /** /*   /**  **     //**   
#   //**    **  //** /** //***  /** /******  /**      /**   
#    /**   **********/**  //*   /** /*//// **/**      /**   
#    /**  /**//////**/**   /    /** /*    /**//**     **    
#    /**  /**     /**/**        /** /*******  //*******     
#    //   //      // //         //  ///////    ///////      
#                                                           
#             GPL Version 3.1.2 Revision 297                
#                http://www.yambo-code.org                  
#
# Polarization (-<<X>>) [volume] @ IQ 1 :0.1000E-4  0.000     0.000
#
# - The gauge is transverse + [r,Vnl] -
#
# BSK|Identifier              :7834
#    |Dimension               :199
#    |Bands                   :1 - 200
#    |Exchange           [res]: yes
#    |Correlation        [res]: no
#    |Kernel`s coupling       : no
#    |Exchange           [cpl]: no
#    |Correlation        [cpl]: no
#    |ALDA kernel in R-space  : yes
#    |RL vectors    [exchange]:9045
#    |E/h energy range    [ev]:-1.000000 - -1.000000
#    |Coupling range     [o/o]: 100.0000 -  100.0000
#
#  E/ev[1]    alpha/Im   alpha/Re   alphao/Im  alphao/Re
#
  0.000     0.5580E-4   1.006     0.1031E-3   1.008   
 0.1502E-1  0.5596E-4   1.006     0.1035E-3   1.008   
 0.3003E-1  0.5612E-4   1.006     0.1039E-3   1.008   
 0.4505E-1  0.5628E-4   1.006     0.1043E-3   1.008   
 0.6006E-1  0.5644E-4   1.006     0.1047E-3   1.008   
 0.7508E-1  0.5660E-4   1.006     0.1051E-3   1.008   
 0.9009E-1  0.5676E-4   1.006     0.1055E-3   1.008   
 0.1051     0.5693E-4   1.006     0.1058E-3   1.009   
 0.1201     0.5709E-4   1.006     0.1062E-3   1.009   
 0.1351     0.5725E-4   1.006     0.1066E-3   1.009   
 0.1502     0.5742E-4   1.006     0.1070E-3   1.009   
 0.1652     0.5759E-4   1.006     0.1075E-3   1.009   
 0.1802     0.5775E-4   1.006     0.1079E-3   1.009   
 0.1952     0.5792E-4   1.006     0.1083E-3   1.009   
 0.2102     0.5809E-4   1.006     0.1087E-3   1.009   
 0.2252     0.5826E-4   1.006     0.1091E-3   1.009   
 0.2402     0.5843E-4   1.006     0.1095E-3   1.009   
 0.2553     0.5860E-4   1.006     0.1099E-3   1.009   
 0.2703     0.5877E-4   1.006     0.1104E-3   1.009   
 0.2853     0.5894E-4   1.006     0.1108E-3   1.009   
 0.3003     0.5911E-4   1.006     0.1112E-3   1.009   
 0.3153     0.5929E-4   1.006     0.1116E-3   1.009   
 0.3303     0.5946E-4   1.006     0.1121E-3   1.009   
 0.3453     0.5964E-4   1.006     0.1125E-3   1.009   
 0.3604     0.5981E-4   1.006     0.1129E-3   1.009   
 0.3754     0.5999E-4   1.006     0.1134E-3   1.009   
 0.3904     0.6017E-4   1.006     0.1138E-3   1.009   
 0.4054     0.6035E-4   1.006     0.1143E-3   1.009   
 0.4204     0.6052E-4   1.006     0.1147E-3   1.009   
 0.4354     0.6070E-4   1.006     0.1152E-3   1.009   
 0.4505     0.6089E-4   1.006     0.1156E-3   1.009   
 0.4655     0.6107E-4   1.006     0.1161E-3   1.009   
 0.4805     0.6125E-4   1.006     0.1165E-3   1.009   
 0.4955     0.6143E-4   1.006     0.1170E-3   1.009   
 0.5105     0.6162E-4   1.006     0.1174E-3   1.009   
 0.5255     0.6180E-4   1.006     0.1179E-3   1.009   
 0.5405     0.6199E-4   1.006     0.1184E-3   1.009   
 0.5556     0.6218E-4   1.006     0.1189E-3   1.009   
 0.5706     0.6236E-4   1.006     0.1193E-3   1.009   
 0.5856     0.6255E-4   1.006     0.1198E-3   1.009   
 0.6006     0.6274E-4   1.006     0.1203E-3   1.009   
 0.6156     0.6293E-4   1.006     0.1208E-3   1.009   
 0.6306     0.6312E-4   1.006     0.1213E-3   1.009   
 0.6456     0.6331E-4   1.006     0.1217E-3   1.009   
 0.6607     0.6351E-4   1.006     0.1222E-3   1.009   
 0.6757     0.6370E-4   1.006     0.1227E-3   1.009   
 0.6907     0.6390E-4   1.006     0.1232E-3   1.009   
 0.7057     0.6409E-4   1.007     0.1237E-3   1.009   
 0.7207     0.6429E-4   1.007     0.1242E-3   1.009   
 0.7357     0.6449E-4   1.007     0.1247E-3   1.009   
 0.7508     0.6469E-4   1.007     0.1252E-3   1.009   
 0.7658     0.6488E-4   1.007     0.1258E-3   1.009   
 0.7808     0.6509E-4   1.007     0.1263E-3   1.009   
 0.7958     0.6529E-4   1.007     0.1268E-3   1.009   
 0.8108     0.6549E-4   1.007     0.1273E-3   1.009   
 0.8258     0.6569E-4   1.007     0.1278E-3   1.009   
 0.8408     0.6590E-4   1.007     0.1284E-3   1.009   
 0.8559     0.6610E-4   1.007     0.1289E-3   1.009   
 0.8709     0.6631E-4   1.007     0.1294E-3   1.009   
 0.8859     0.6652E-4   1.007     0.1300E-3   1.009   
 0.9009     0.6672E-4   1.007     0.1305E-3   1.009   
 0.9159     0.6693E-4   1.007     0.1311E-3   1.009   
 0.9309     0.6714E-4   1.007     0.1316E-3   1.009   
 0.9459     0.6735E-4   1.007     0.1322E-3   1.010   
 0.9610     0.6757E-4   1.007     0.1327E-3   1.010   
 0.9760     0.6778E-4   1.007     0.1333E-3   1.010   
 0.9910     0.6799E-4   1.007     0.1339E-3   1.010   
  1.006     0.6821E-4   1.007     0.1344E-3   1.010   
  1.021     0.6843E-4   1.007     0.1350E-3   1.010   
  1.036     0.6864E-4   1.007     0.1356E-3   1.010   
  1.051     0.6886E-4   1.007     0.1361E-3   1.010   
  1.066     0.6908E-4   1.007     0.1367E-3   1.010   
  1.081     0.6930E-4   1.007     0.1373E-3   1.010   
  1.096     0.6953E-4   1.007     0.1379E-3   1.010   
  1.111     0.6975E-4   1.007     0.1385E-3   1.010   
  1.126     0.6997E-4   1.007     0.1391E-3   1.010   
  1.141     0.7020E-4   1.007     0.1397E-3   1.010   
  1.156     0.7042E-4   1.007     0.1403E-3   1.010   
  1.171     0.7065E-4   1.007     0.1409E-3   1.010   
  1.186     0.7088E-4   1.007     0.1415E-3   1.010   
  1.201     0.7111E-4   1.007     0.1421E-3   1.010   
  1.216     0.7134E-4   1.007     0.1428E-3   1.010   
  1.231     0.7157E-4   1.007     0.1434E-3   1.010   
  1.246     0.7181E-4   1.007     0.1440E-3   1.010   
  1.261     0.7204E-4   1.007     0.1447E-3   1.010   
  1.276     0.7228E-4   1.007     0.1453E-3   1.010   
  1.291     0.7251E-4   1.007     0.1459E-3   1.010   
  1.306     0.7275E-4   1.007     0.1466E-3   1.010   
  1.321     0.7299E-4   1.007     0.1472E-3   1.010   
  1.336     0.7323E-4   1.007     0.1479E-3   1.010   
  1.351     0.7347E-4   1.007     0.1485E-3   1.010   
  1.366     0.7371E-4   1.007     0.1492E-3   1.010   
  1.381     0.7396E-4   1.007     0.1499E-3   1.010   
  1.396     0.7420E-4   1.007     0.1505E-3   1.010   
  1.411     0.7445E-4   1.007     0.1512E-3   1.010   
  1.426     0.7470E-4   1.007     0.1519E-3   1.010   
  1.441     0.7495E-4   1.007     0.1526E-3   1.010   
  1.456     0.7520E-4   1.007     0.1533E-3   1.010   
  1.471     0.7545E-4   1.007     0.1540E-3   1.010   
  1.486     0.7570E-4   1.007     0.1547E-3   1.010   
  1.502     0.7596E-4   1.007     0.1554E-3   1.010   
  1.517     0.7621E-4   1.007     0.1561E-3   1.010   
  1.532     0.7647E-4   1.007     0.1568E-3   1.010   
  1.547     0.7673E-4   1.007     0.1575E-3   1.010   
  1.562     0.7699E-4   1.007     0.1583E-3   1.010   
  1.577     0.7725E-4   1.007     0.1590E-3   1.010   
  1.592     0.7751E-4   1.007     0.1597E-3   1.010   
  1.607     0.7777E-4   1.007     0.1605E-3   1.010   
  1.622     0.7804E-4   1.007     0.1612E-3   1.010   
  1.637     0.7831E-4   1.007     0.1620E-3   1.011   
  1.652     0.7857E-4   1.007     0.1627E-3   1.011   
  1.667     0.7884E-4   1.007     0.1635E-3   1.011   
  1.682     0.7911E-4   1.007     0.1642E-3   1.011   
  1.697     0.7939E-4   1.007     0.1650E-3   1.011   
  1.712     0.7966E-4   1.007     0.1658E-3   1.011   
  1.727     0.7994E-4   1.007     0.1666E-3   1.011   
  1.742     0.8021E-4   1.007     0.1674E-3   1.011   
  1.757     0.8049E-4   1.007     0.1682E-3   1.011   
  1.772     0.8077E-4   1.007     0.1690E-3   1.011   
  1.787     0.8105E-4   1.007     0.1698E-3   1.011   
  1.802     0.8133E-4   1.007     0.1706E-3   1.011   
  1.817     0.8162E-4   1.007     0.1714E-3   1.011   
  1.832     0.8190E-4   1.007     0.1722E-3   1.011   
  1.847     0.8219E-4   1.007     0.1730E-3   1.011   
  1.862     0.8248E-4   1.007     0.1739E-3   1.011   
  1.877     0.8277E-4   1.007     0.1747E-3   1.011   
  1.892     0.8306E-4   1.007     0.1756E-3   1.011   
  1.907     0.8336E-4   1.007     0.1764E-3   1.011   
  1.922     0.8365E-4   1.007     0.1773E-3   1.011   
  1.937     0.8395E-4   1.007     0.1782E-3   1.011   
  1.952     0.8425E-4   1.007     0.1790E-3   1.011   
  1.967     0.8455E-4   1.007     0.1799E-3   1.011   
  1.982     0.8485E-4   1.007     0.1808E-3   1.011   
  1.997     0.8515E-4   1.007     0.1817E-3   1.011   
  2.012     0.8546E-4   1.007     0.1826E-3   1.011   
  2.027     0.8576E-4   1.007     0.1835E-3   1.011   
  2.042     0.8607E-4   1.007     0.1844E-3   1.011   
  2.057     0.8638E-4   1.008     0.1853E-3   1.011   
  2.072     0.8669E-4   1.008     0.1862E-3   1.011   
  2.087     0.8701E-4   1.008     0.1872E-3   1.011   
  2.102     0.8732E-4   1.008     0.1881E-3   1.011   
  2.117     0.8764E-4   1.008     0.1891E-3   1.011   
  2.132     0.8796E-4   1.008     0.1900E-3   1.011   
  2.147     0.8828E-4   1.008     0.1910E-3   1.011   
  2.162     0.8860E-4   1.008     0.1920E-3   1.011   
  2.177     0.8893E-4   1.008     0.1929E-3   1.011   
  2.192     0.8925E-4   1.008     0.1939E-3   1.012   
  2.207     0.8958E-4   1.008     0.1949E-3   1.012   
  2.222     0.8991E-4   1.008     0.1959E-3   1.012   
  2.237     0.9024E-4   1.008     0.1969E-3   1.012   
  2.252     0.9058E-4   1.008     0.1979E-3   1.012   
  2.267     0.9091E-4   1.008     0.1990E-3   1.012   
  2.282     0.9125E-4   1.008     0.2000E-3   1.012   
  2.297     0.9159E-4   1.008     0.2010E-3   1.012   
  2.312     0.9193E-4   1.008     0.2021E-3   1.012   
  2.327     0.9228E-4   1.008     0.2031E-3   1.012   
  2.342     0.9262E-4   1.008     0.2042E-3   1.012   
  2.357     0.9297E-4   1.008     0.2053E-3   1.012   
  2.372     0.9332E-4   1.008     0.2063E-3   1.012   
  2.387     0.9367E-4   1.008     0.2074E-3   1.012   
  2.402     0.9402E-4   1.008     0.2085E-3   1.012   
  2.417     0.9438E-4   1.008     0.2096E-3   1.012   
  2.432     0.9474E-4   1.008     0.2108E-3   1.012   
  2.447     0.9510E-4   1.008     0.2119E-3   1.012   
  2.462     0.9546E-4   1.008     0.2130E-3   1.012   
  2.477     0.9582E-4   1.008     0.2142E-3   1.012   
  2.492     0.9619E-4   1.008     0.2153E-3   1.012   
  2.508     0.9656E-4   1.008     0.2165E-3   1.012   
  2.523     0.9693E-4   1.008     0.2176E-3   1.012   
  2.538     0.9730E-4   1.008     0.2188E-3   1.012   
  2.553     0.9768E-4   1.008     0.2200E-3   1.012   
  2.568     0.9806E-4   1.008     0.2212E-3   1.012   
  2.583     0.9844E-4   1.008     0.2224E-3   1.012   
  2.598     0.9882E-4   1.008     0.2236E-3   1.012   
  2.613     0.9920E-4   1.008     0.2249E-3   1.012   
  2.628     0.9959E-4   1.008     0.2261E-3   1.012   
  2.643     0.9998E-4   1.008     0.2274E-3   1.012   
  2.658     0.1004E-3   1.008     0.2286E-3   1.012   
  2.673     0.1008E-3   1.008     0.2299E-3   1.013   
  2.688     0.1012E-3   1.008     0.2312E-3   1.013   
  2.703     0.1016E-3   1.008     0.2325E-3   1.013   
  2.718     0.1020E-3   1.008     0.2338E-3   1.013   
  2.733     0.1024E-3   1.008     0.2351E-3   1.013   
  2.748     0.1028E-3   1.008     0.2364E-3   1.013   
  2.763     0.1032E-3   1.008     0.2378E-3   1.013   
  2.778     0.1036E-3   1.008     0.2391E-3   1.013   
  2.793     0.1040E-3   1.008     0.2405E-3   1.013   
  2.808     0.1044E-3   1.008     0.2418E-3   1.013   
  2.823     0.1048E-3   1.008     0.2432E-3   1.013   
  2.838     0.1053E-3   1.008     0.2446E-3   1.013   
  2.853     0.1057E-3   1.008     0.2460E-3   1.013   
  2.868     0.1061E-3   1.008     0.2474E-3   1.013   
  2.883     0.1065E-3   1.008     0.2489E-3   1.013   
  2.898     0.1070E-3   1.008     0.2503E-3   1.013   
  2.913     0.1074E-3   1.008     0.2518E-3   1.013   
  2.928     0.1078E-3   1.008     0.2533E-3   1.013   
  2.943     0.1083E-3   1.008     0.2547E-3   1.013   
  2.958     0.1087E-3   1.008     0.2562E-3   1.013   
  2.973     0.1092E-3   1.008     0.2577E-3   1.013   
  2.988     0.1096E-3   1.008     0.2593E-3   1.013   
  3.003     0.1101E-3   1.008     0.2608E-3   1.013   
  3.018     0.1105E-3   1.008     0.2624E-3   1.013   
  3.033     0.1110E-3   1.008     0.2639E-3   1.013   
  3.048     0.1114E-3   1.008     0.2655E-3   1.013   
  3.063     0.1119E-3   1.009     0.2671E-3   1.013   
  3.078     0.1124E-3   1.009     0.2687E-3   1.014   
  3.093     0.1128E-3   1.009     0.2703E-3   1.014   
  3.108     0.1133E-3   1.009     0.2720E-3   1.014   
  3.123     0.1138E-3   1.009     0.2736E-3   1.014   
  3.138     0.1143E-3   1.009     0.2753E-3   1.014   
  3.153     0.1148E-3   1.009     0.2770E-3   1.014   
  3.168     0.1152E-3   1.009     0.2787E-3   1.014   
  3.183     0.1157E-3   1.009     0.2804E-3   1.014   
  3.198     0.1162E-3   1.009     0.2821E-3   1.014   
  3.213     0.1167E-3   1.009     0.2839E-3   1.014   
  3.228     0.1172E-3   1.009     0.2856E-3   1.014   
  3.243     0.1177E-3   1.009     0.2874E-3   1.014   
  3.258     0.1182E-3   1.009     0.2892E-3   1.014   
  3.273     0.1187E-3   1.009     0.2910E-3   1.014   
  3.288     0.1192E-3   1.009     0.2928E-3   1.014   
  3.303     0.1197E-3   1.009     0.2947E-3   1.014   
  3.318     0.1203E-3   1.009     0.2965E-3   1.014   
  3.333     0.1208E-3   1.009     0.2984E-3   1.014   
  3.348     0.1213E-3   1.009     0.3003E-3   1.014   
  3.363     0.1218E-3   1.009     0.3022E-3   1.014   
  3.378     0.1224E-3   1.009     0.3042E-3   1.014   
  3.393     0.1229E-3   1.009     0.3061E-3   1.014   
  3.408     0.1234E-3   1.009     0.3081E-3   1.014   
  3.423     0.1240E-3   1.009     0.3101E-3   1.015   
  3.438     0.1245E-3   1.009     0.3121E-3   1.015   
  3.453     0.1251E-3   1.009     0.3142E-3   1.015   
  3.468     0.1256E-3   1.009     0.3162E-3   1.015   
  3.483     0.1262E-3   1.009     0.3183E-3   1.015   
  3.498     0.1268E-3   1.009     0.3204E-3   1.015   
  3.514     0.1273E-3   1.009     0.3225E-3   1.015   
  3.529     0.1279E-3   1.009     0.3246E-3   1.015   
  3.544     0.1285E-3   1.009     0.3268E-3   1.015   
  3.559     0.1291E-3   1.009     0.3290E-3   1.015   
  3.574     0.1296E-3   1.009     0.3312E-3   1.015   
  3.589     0.1302E-3   1.009     0.3334E-3   1.015   
  3.604     0.1308E-3   1.009     0.3357E-3   1.015   
  3.619     0.1314E-3   1.009     0.3379E-3   1.015   
  3.634     0.1320E-3   1.009     0.3402E-3   1.015   
  3.649     0.1326E-3   1.009     0.3425E-3   1.015   
  3.664     0.1332E-3   1.009     0.3449E-3   1.015   
  3.679     0.1338E-3   1.009     0.3472E-3   1.015   
  3.694     0.1344E-3   1.009     0.3496E-3   1.015   
  3.709     0.1351E-3   1.009     0.3520E-3   1.015   
  3.724     0.1357E-3   1.009     0.3545E-3   1.016   
  3.739     0.1363E-3   1.009     0.3569E-3   1.016   
  3.754     0.1370E-3   1.009     0.3594E-3   1.016   
  3.769     0.1376E-3   1.009     0.3620E-3   1.016   
  3.784     0.1382E-3   1.009     0.3645E-3   1.016   
  3.799     0.1389E-3   1.009     0.3671E-3   1.016   
  3.814     0.1395E-3   1.009     0.3697E-3   1.016   
  3.829     0.1402E-3   1.009     0.3723E-3   1.016   
  3.844     0.1409E-3   1.009     0.3749E-3   1.016   
  3.859     0.1415E-3   1.010     0.3776E-3   1.016   
  3.874     0.1422E-3   1.010     0.3803E-3   1.016   
  3.889     0.1429E-3   1.010     0.3831E-3   1.016   
  3.904     0.1436E-3   1.010     0.3858E-3   1.016   
  3.919     0.1443E-3   1.010     0.3887E-3   1.016   
  3.934     0.1449E-3   1.010     0.3915E-3   1.016   
  3.949     0.1456E-3   1.010     0.3943E-3   1.016   
  3.964     0.1463E-3   1.010     0.3972E-3   1.016   
  3.979     0.1471E-3   1.010     0.4002E-3   1.016   
  3.994     0.1478E-3   1.010     0.4031E-3   1.017   
  4.009     0.1485E-3   1.010     0.4061E-3   1.017   
  4.024     0.1492E-3   1.010     0.4091E-3   1.017   
  4.039     0.1499E-3   1.010     0.4122E-3   1.017   
  4.054     0.1507E-3   1.010     0.4153E-3   1.017   
  4.069     0.1514E-3   1.010     0.4184E-3   1.017   
  4.084     0.1522E-3   1.010     0.4216E-3   1.017   
  4.099     0.1529E-3   1.010     0.4248E-3   1.017   
  4.114     0.1537E-3   1.010     0.4280E-3   1.017   
  4.129     0.1545E-3   1.010     0.4313E-3   1.017   
  4.144     0.1552E-3   1.010     0.4346E-3   1.017   
  4.159     0.1560E-3   1.010     0.4380E-3   1.017   
  4.174     0.1568E-3   1.010     0.4414E-3   1.017   
  4.189     0.1576E-3   1.010     0.4448E-3   1.017   
  4.204     0.1584E-3   1.010     0.4483E-3   1.017   
  4.219     0.1592E-3   1.010     0.4518E-3   1.017   
  4.234     0.1600E-3   1.010     0.4554E-3   1.018   
  4.249     0.1608E-3   1.010     0.4589E-3   1.018   
  4.264     0.1616E-3   1.010     0.4626E-3   1.018   
  4.279     0.1624E-3   1.010     0.4663E-3   1.018   
  4.294     0.1633E-3   1.010     0.4700E-3   1.018   
  4.309     0.1641E-3   1.010     0.4738E-3   1.018   
  4.324     0.1650E-3   1.010     0.4776E-3   1.018   
  4.339     0.1658E-3   1.010     0.4815E-3   1.018   
  4.354     0.1667E-3   1.010     0.4854E-3   1.018   
  4.369     0.1676E-3   1.010     0.4893E-3   1.018   
  4.384     0.1684E-3   1.010     0.4933E-3   1.018   
  4.399     0.1693E-3   1.010     0.4974E-3   1.018   
  4.414     0.1702E-3   1.010     0.5015E-3   1.018   
  4.429     0.1711E-3   1.010     0.5057E-3   1.018   
  4.444     0.1720E-3   1.010     0.5099E-3   1.019   
  4.459     0.1729E-3   1.010     0.5142E-3   1.019   
  4.474     0.1738E-3   1.010     0.5185E-3   1.019   
  4.489     0.1748E-3   1.010     0.5229E-3   1.019   
  4.505     0.1757E-3   1.011     0.5273E-3   1.019   
  4.520     0.1766E-3   1.011     0.5318E-3   1.019   
  4.535     0.1776E-3   1.011     0.5363E-3   1.019   
  4.550     0.1786E-3   1.011     0.5409E-3   1.019   
  4.565     0.1795E-3   1.011     0.5456E-3   1.019   
  4.580     0.1805E-3   1.011     0.5503E-3   1.019   
  4.595     0.1815E-3   1.011     0.5551E-3   1.019   
  4.610     0.1825E-3   1.011     0.5600E-3   1.019   
  4.625     0.1835E-3   1.011     0.5649E-3   1.020   
  4.640     0.1845E-3   1.011     0.5699E-3   1.020   
  4.655     0.1855E-3   1.011     0.5749E-3   1.020   
  4.670     0.1865E-3   1.011     0.5800E-3   1.020   
  4.685     0.1876E-3   1.011     0.5852E-3   1.020   
  4.700     0.1886E-3   1.011     0.5905E-3   1.020   
  4.715     0.1897E-3   1.011     0.5958E-3   1.020   
  4.730     0.1907E-3   1.011     0.6012E-3   1.020   
  4.745     0.1918E-3   1.011     0.6067E-3   1.020   
  4.760     0.1929E-3   1.011     0.6122E-3   1.020   
  4.775     0.1940E-3   1.011     0.6178E-3   1.020   
  4.790     0.1951E-3   1.011     0.6235E-3   1.021   
  4.805     0.1962E-3   1.011     0.6293E-3   1.021   
  4.820     0.1973E-3   1.011     0.6352E-3   1.021   
  4.835     0.1985E-3   1.011     0.6411E-3   1.021   
  4.850     0.1996E-3   1.011     0.6472E-3   1.021   
  4.865     0.2008E-3   1.011     0.6533E-3   1.021   
  4.880     0.2019E-3   1.011     0.6595E-3   1.021   
  4.895     0.2031E-3   1.011     0.6658E-3   1.021   
  4.910     0.2043E-3   1.011     0.6722E-3   1.021   
  4.925     0.2055E-3   1.011     0.6786E-3   1.021   
  4.940     0.2067E-3   1.011     0.6852E-3   1.021   
  4.955     0.2079E-3   1.011     0.6919E-3   1.022   
  4.970     0.2091E-3   1.011     0.6987E-3   1.022   
  4.985     0.2104E-3   1.011     0.7055E-3   1.022   
  5.000     0.2116E-3   1.011     0.7125E-3   1.022   
  5.015     0.2129E-3   1.012     0.7196E-3   1.022   
  5.030     0.2142E-3   1.012     0.7267E-3   1.022   
  5.045     0.2155E-3   1.012     0.7340E-3   1.022   
  5.060     0.2168E-3   1.012     0.7414E-3   1.022   
