#  __  __   ________   ___ __ __    _______   ______        
# /_/\/_/\ /_______/\ /__//_//_/\ /_______/\ /_____/\       
# \ \ \ \ \\::: _  \ \\::\| \| \ \\::: _  \ \\:::_ \ \      
#  \:\_\ \ \\::(_)  \ \\:.      \ \\::(_)  \/_\:\ \ \ \     
#   \::::_\/ \:: __  \ \\:.\-/\  \ \\::  _  \ \\:\ \ \ \    
#     \::\ \  \:.\ \  \ \\. \  \  \ \\::(_)  \ \\:\_\ \ \   
#      \__\/   \__\/\__\/ \__\/ \__\/ \_______\/ \_____\/   
#                                                           
#             GPL Version 4.0.0 Revision 4281               
#                    MPI+OpenMP Build                       
#                http://www.yambo-code.org                  
#
# EELS @ Q(1)  [q->0 direction]:0.1000E-4  0.000     0.000   
#
#
# - Energies      are Teter 93(XC)+Scissor
# - Wavefunctions are Teter 93(XC)
#
# - The Green`s function is resonant -
# - Using the Length Gauge -
# - [r,Vnl] *is* included -
#
#   BSK|Identifier              :798
#      |Dimension               :69
#      |Bands                   :1 - 70
#      |Exchange           [res]: yes
#      |Correlation        [res]: yes
#      |Kernel`s coupling       : no
#      |Exchange           [cpl]: no
#      |W interaction is bare   : no
#      |Correlation        [cpl]: no
#      |ALDA kernel in R-space  : no
#      |RL vectors    [exchange]:437
#      |RL vectors [correlation]:619
#      |E/h energy range    [ev]:-1.000000 - -1.000000
#      |Coupling range     [o/o]: 100.0000 -  100.0000
#    W |Interaction is diagonal : no
#      |Matrix size             :1503
#      |Bands                   :1 - 250
#      |e/h energy range    [ev]:-1.000000 - -1.000000
#      |Poles              [o/o]: 100.0000
#      |Rl vectors in the sum   :9939
#      |[r,Vnl] included        : yes
#      |Field direction         :0.1000E-4  0.000000  0.000000
#      |Coulomb Cutoff          :none
#      |xc-Kernel               :none
#   RIM|RL components      [col]:0
#      |Random points      [col]:0
#
#  E/ev[1]    alpha /Im[2alpha /Re[3alpha0/Im[4alpha0/Re[5]
#
  0.000     0.1083E-7   17.85     -.3076E-7   10.53   
 0.2002E-1  0.8056E-3   17.85     0.1706E-3   10.53   
 0.4004E-1  0.1611E-2   17.85     0.3413E-3   10.53   
 0.6006E-1  0.2417E-2   17.85     0.5120E-3   10.53   
 0.8008E-1  0.3223E-2   17.85     0.6826E-3   10.54   
 0.1001     0.4029E-2   17.85     0.8534E-3   10.53   
 0.1201     0.4835E-2   17.85     0.1024E-2   10.53   
 0.1401     0.5642E-2   17.85     0.1195E-2   10.53   
 0.1602     0.6449E-2   17.85     0.1366E-2   10.53   
 0.1802     0.7256E-2   17.86     0.1536E-2   10.53   
 0.2002     0.8063E-2   17.86     0.1707E-2   10.53   
 0.2202     0.8871E-2   17.86     0.1878E-2   10.53   
 0.2402     0.9680E-2   17.86     0.2049E-2   10.53   
 0.2603     0.1049E-1   17.86     0.2220E-2   10.54   
 0.2803     0.1130E-1   17.86     0.2391E-2   10.53   
 0.3003     0.1211E-1   17.87     0.2562E-2   10.53   
 0.3203     0.1292E-1   17.87     0.2733E-2   10.54   
 0.3403     0.1373E-1   17.87     0.2904E-2   10.53   
 0.3604     0.1454E-1   17.88     0.3075E-2   10.54   
 0.3804     0.1536E-1   17.88     0.3246E-2   10.53   
 0.4004     0.1617E-1   17.88     0.3418E-2   10.53   
 0.4204     0.1699E-1   17.89     0.3589E-2   10.53   
 0.4404     0.1780E-1   17.89     0.3760E-2   10.54   
 0.4605     0.1862E-1   17.89     0.3932E-2   10.54   
 0.4805     0.1944E-1   17.89     0.4103E-2   10.54   
 0.5005     0.2025E-1   17.90     0.4275E-2   10.55   
 0.5205     0.2107E-1   17.90     0.4447E-2   10.54   
 0.5405     0.2190E-1   17.91     0.4619E-2   10.55   
 0.5606     0.2272E-1   17.91     0.4791E-2   10.55   
 0.5806     0.2354E-1   17.92     0.4963E-2   10.55   
 0.6006     0.2437E-1   17.92     0.5135E-2   10.55   
 0.6206     0.2519E-1   17.92     0.5307E-2   10.55   
 0.6406     0.2602E-1   17.93     0.5479E-2   10.55   
 0.6607     0.2685E-1   17.94     0.5652E-2   10.55   
 0.6807     0.2768E-1   17.94     0.5824E-2   10.56   
 0.7007     0.2851E-1   17.95     0.5997E-2   10.56   
 0.7207     0.2934E-1   17.95     0.6169E-2   10.56   
 0.7407     0.3018E-1   17.96     0.6342E-2   10.56   
 0.7608     0.3102E-1   17.97     0.6515E-2   10.56   
 0.7808     0.3185E-1   17.97     0.6688E-2   10.56   
 0.8008     0.3269E-1   17.98     0.6862E-2   10.56   
 0.8208     0.3354E-1   17.99     0.7035E-2   10.56   
 0.8408     0.3438E-1   17.99     0.7209E-2   10.56   
 0.8609     0.3523E-1   18.00     0.7382E-2   10.57   
 0.8809     0.3607E-1   18.00     0.7556E-2   10.57   
 0.9009     0.3692E-1   18.01     0.7730E-2   10.57   
 0.9209     0.3778E-1   18.02     0.7904E-2   10.57   
 0.9409     0.3863E-1   18.03     0.8078E-2   10.57   
 0.9610     0.3949E-1   18.03     0.8253E-2   10.57   
 0.9810     0.4034E-1   18.04     0.8427E-2   10.57   
  1.001     0.4121E-1   18.05     0.8602E-2   10.57   
  1.021     0.4207E-1   18.06     0.8777E-2   10.58   
  1.041     0.4293E-1   18.07     0.8952E-2   10.58   
  1.061     0.4380E-1   18.08     0.9127E-2   10.59   
  1.081     0.4467E-1   18.09     0.9303E-2   10.59   
  1.101     0.4554E-1   18.10     0.9478E-2   10.59   
  1.121     0.4642E-1   18.10     0.9654E-2   10.59   
  1.141     0.4730E-1   18.12     0.9830E-2   10.59   
  1.161     0.4818E-1   18.13     0.1001E-1   10.59   
  1.181     0.4906E-1   18.13     0.1018E-1   10.59   
  1.201     0.4995E-1   18.15     0.1036E-1   10.59   
  1.221     0.5084E-1   18.16     0.1054E-1   10.59   
  1.241     0.5173E-1   18.16     0.1071E-1   10.60   
  1.261     0.5262E-1   18.18     0.1089E-1   10.60   
  1.281     0.5352E-1   18.18     0.1107E-1   10.60   
  1.301     0.5442E-1   18.19     0.1125E-1   10.60   
  1.321     0.5532E-1   18.21     0.1142E-1   10.60   
  1.341     0.5623E-1   18.22     0.1160E-1   10.61   
  1.361     0.5714E-1   18.23     0.1178E-1   10.61   
  1.381     0.5806E-1   18.24     0.1196E-1   10.61   
  1.401     0.5897E-1   18.25     0.1214E-1   10.61   
  1.421     0.5989E-1   18.26     0.1232E-1   10.62   
  1.441     0.6082E-1   18.27     0.1250E-1   10.62   
  1.461     0.6174E-1   18.29     0.1267E-1   10.63   
  1.481     0.6268E-1   18.30     0.1285E-1   10.63   
  1.502     0.6361E-1   18.31     0.1303E-1   10.63   
  1.522     0.6455E-1   18.32     0.1321E-1   10.64   
  1.542     0.6549E-1   18.34     0.1340E-1   10.64   
  1.562     0.6644E-1   18.35     0.1358E-1   10.64   
  1.582     0.6739E-1   18.37     0.1376E-1   10.64   
  1.602     0.6834E-1   18.38     0.1394E-1   10.65   
  1.622     0.6930E-1   18.39     0.1412E-1   10.65   
  1.642     0.7026E-1   18.41     0.1430E-1   10.66   
  1.662     0.7123E-1   18.42     0.1448E-1   10.65   
  1.682     0.7220E-1   18.44     0.1467E-1   10.66   
  1.702     0.7317E-1   18.45     0.1485E-1   10.66   
  1.722     0.7415E-1   18.47     0.1503E-1   10.66   
  1.742     0.7513E-1   18.48     0.1522E-1   10.66   
  1.762     0.7612E-1   18.50     0.1540E-1   10.67   
  1.782     0.7711E-1   18.51     0.1558E-1   10.67   
  1.802     0.7811E-1   18.53     0.1577E-1   10.67   
  1.822     0.7911E-1   18.54     0.1595E-1   10.68   
  1.842     0.8012E-1   18.56     0.1614E-1   10.68   
  1.862     0.8113E-1   18.57     0.1632E-1   10.68   
  1.882     0.8215E-1   18.59     0.1651E-1   10.69   
  1.902     0.8317E-1   18.61     0.1669E-1   10.69   
  1.922     0.8420E-1   18.62     0.1688E-1   10.70   
  1.942     0.8523E-1   18.64     0.1707E-1   10.70   
  1.962     0.8627E-1   18.65     0.1725E-1   10.70   
  1.982     0.8731E-1   18.67     0.1744E-1   10.70   
  2.002     0.8836E-1   18.69     0.1763E-1   10.70   
  2.022     0.8941E-1   18.71     0.1782E-1   10.71   
  2.042     0.9047E-1   18.72     0.1801E-1   10.71   
  2.062     0.9153E-1   18.75     0.1819E-1   10.72   
  2.082     0.9260E-1   18.76     0.1838E-1   10.71   
  2.102     0.9368E-1   18.78     0.1857E-1   10.72   
  2.122     0.9476E-1   18.80     0.1876E-1   10.73   
   2.14214    0.09585   18.82059    0.01895   10.72398
   2.16216    0.09694   18.83682    0.01914   10.73620
   2.18218    0.09804   18.85928    0.01933   10.73591
   2.20220    0.09915   18.88530    0.01953   10.74280
   2.22222    0.10026   18.89678    0.01972   10.74702
   2.24224    0.10138   18.91983    0.01991   10.76170
   2.26226    0.10251   18.94421    0.02010   10.75221
   2.28228    0.10364   18.95992    0.02030   10.75762
   2.30230    0.10478   18.98446    0.02049   10.76259
   2.32232    0.10593   19.00113    0.02068   10.76740
   2.34234    0.10708   19.02270    0.02088   10.77363
   2.36236    0.10824   19.04345    0.02107   10.77378
   2.38238    0.10940   19.06709    0.02127   10.77585
   2.40240    0.11058   19.08466    0.02146   10.77948
   2.42242    0.11176   19.11023    0.02166   10.79068
   2.44244    0.11295   19.13542    0.02186   10.78823
   2.46246    0.11414   19.15595    0.02205   10.79394
   2.48248    0.11535   19.17819    0.02225   10.79757
   2.50250    0.11656   19.20049    0.02245   10.80557
   2.52252    0.11778   19.22680    0.02265   10.81476
   2.54254    0.11901   19.25037    0.02285   10.81417
   2.56256    0.12024   19.27579    0.02304   10.82306
   2.58258    0.12149   19.29313    0.02324   10.82655
   2.60260    0.12274   19.32263    0.02344   10.83411
   2.62262    0.12400   19.34887    0.02365   10.83047
   2.64264    0.12527   19.37503    0.02385   10.83981
   2.66266    0.12654   19.39585    0.02405   10.84330
   2.68268    0.12783   19.42261    0.02425   10.84796
   2.70270    0.12912   19.45203    0.02445   10.84982
   2.72272    0.13043   19.47686    0.02466   10.85234
   2.74274    0.13174   19.49887    0.02486   10.85960
   2.76276    0.13306   19.52496    0.02506   10.86583
   2.78278    0.13439   19.55171    0.02527   10.87227
   2.80280    0.13574   19.57854    0.02548   10.87361
   2.82282    0.13709   19.60381    0.02568   10.87694
   2.84284    0.13845   19.63094    0.02589   10.88569
   2.86286    0.13982   19.66095    0.02609   10.88858
   2.88288    0.14120   19.69253    0.02630   10.88962
   2.90290    0.14259   19.71424    0.02651   10.90036
   2.92292    0.14399   19.74581    0.02672   10.90229
   2.94294    0.14540   19.77583    0.02693   10.91407
   2.96296    0.14682   19.80110    0.02714   10.91304
   2.98298    0.14826   19.83697    0.02735   10.92104
   3.00300    0.14970   19.86595    0.02756   10.92964
   3.02302    0.15115   19.89152    0.02777   10.93171
   3.04304    0.15262   19.92754    0.02798   10.94579
   3.06306    0.15410   19.95792    0.02820   10.94535
   3.08308    0.15559   19.98608    0.02841   10.95802
   3.10310    0.15709   20.01832    0.02862   10.95936
   3.12312    0.15860   20.05190    0.02884   10.96691
   3.14314    0.16012   20.08006    0.02905   10.97129
   3.16316    0.16166   20.11259    0.02927   10.97825
   3.18318    0.16321   20.15039    0.02949   10.98656
   3.20320    0.16477   20.18337    0.02970   10.98529
   3.22322    0.16634   20.21131    0.02992   10.99093
   3.24324    0.16793   20.24837    0.03014   11.00056
   3.26326    0.16953   20.27942    0.03036   11.00130
   3.28328    0.17114   20.31529    0.03058   11.01094
   3.30330    0.17277   20.34961    0.03080   11.01805
   3.32332    0.17441   20.38585    0.03102   11.02183
   3.34334    0.17607   20.41571    0.03124   11.02606
   3.36336    0.17774   20.45381    0.03147   11.03480
   3.38338    0.17942   20.49227    0.03169   11.03947
   3.40340    0.18112   20.52407    0.03191   11.05007
   3.42342    0.18283   20.55934    0.03214   11.05400
   3.44344    0.18456   20.59403    0.03236   11.06245
   3.46346    0.18630   20.63924    0.03259   11.06333
   3.48348    0.18805   20.67474    0.03282   11.06897
   3.50350    0.18983   20.70757    0.03304   11.08179
   3.52352    0.19161   20.74818    0.03327   11.08587
   3.54354    0.19342   20.78946    0.03350   11.09246
   3.56356    0.19524   20.83015    0.03373   11.09809
   3.58358    0.19708   20.86498    0.03396   11.10758
   3.60360    0.19893   20.90322    0.03419   11.10454
   3.62362    0.20080   20.94591    0.03443   11.12374
   3.64364    0.20269   20.98675    0.03466   11.12678
   3.66366    0.20459   21.02625    0.03489   11.13463
   3.68368    0.20652   21.06353    0.03513   11.14063
   3.70370    0.20846   21.10377    0.03536   11.14923
   3.72372    0.21042   21.15061    0.03560   11.15257
   3.74374    0.21240   21.19285    0.03584   11.16524
   3.76376    0.21439   21.23554    0.03607   11.17295
   3.78378    0.21641   21.27638    0.03631   11.17524
   3.80380    0.21844   21.31944    0.03655   11.18384
   3.82382    0.22050   21.36198    0.03679   11.18866
   3.84384    0.22257   21.40719    0.03703   11.19437
   3.86386    0.22467   21.45632    0.03728   11.20771
   3.88388    0.22678   21.49553    0.03752   11.21082
   3.90390    0.22892   21.54304    0.03776   11.22023
   3.92392    0.23108   21.59076    0.03801   11.23075
   3.94394    0.23325   21.63582    0.03825   11.23424
   3.96396    0.23545   21.68459    0.03850   11.24061
   3.98398    0.23768   21.73084    0.03875   11.25188
   4.00400    0.23993   21.77219    0.03899   11.25914
   4.02402    0.24219   21.82400    0.03924   11.26381
   4.04404    0.24448   21.87780    0.03949   11.27003
   4.06406    0.24680   21.92753    0.03974   11.27982
   4.08408    0.24914   21.97207    0.04000   11.28664
   4.10410    0.25150   22.02514    0.04025   11.29627
   4.12412    0.25389   22.07605    0.04050   11.30887
   4.14414    0.25630   22.12437    0.04076   11.31776
   4.16416    0.25874   22.17796    0.04101   11.32814
   4.18418    0.26120   22.22976    0.04127   11.33088
   4.20420    0.26369   22.28179    0.04153   11.34222
   4.22422    0.26621   22.33582    0.04179   11.34630
   4.24424    0.26875   22.39058    0.04205   11.35215
   4.26426    0.27132   22.44587    0.04231   11.36319
   4.28428    0.27392   22.50064    0.04257   11.37513
   4.30430    0.27655   22.55363    0.04283   11.37631
   4.32432    0.27921   22.60677    0.04310   11.39158
   4.34434    0.28190   22.66139    0.04336   11.39706
   4.36436    0.28461   22.71482    0.04363   11.40307
   4.38438    0.28736   22.77308    0.04389   11.41663
   4.40440    0.29014   22.82881    0.04416   11.42560
   4.42442    0.29295   22.88765    0.04443   11.43330
   4.44444    0.29579   22.94850    0.04470   11.43708
   4.46446    0.29866   23.00831    0.04497   11.45487
   4.48448    0.30157   23.06797    0.04525   11.45620
   4.50450    0.30450   23.13141    0.04552   11.46739
   4.52452    0.30748   23.19248    0.04579   11.47785
   4.54454    0.31049   23.25473    0.04607   11.47992
   4.56456    0.31353   23.31795    0.04635   11.49415
   4.58458    0.31661   23.37917    0.04663   11.50564
   4.60460    0.31972   23.44283    0.04690   11.51164
   4.62462    0.32288   23.50590    0.04719   11.52409
   4.64464    0.32607   23.56749    0.04747   11.53128
   4.66466    0.32930   23.63330    0.04775   11.54477
   4.68468    0.33256   23.70074    0.04803   11.55144
   4.70470    0.33587   23.76989    0.04832   11.56063
   4.72472    0.33922   23.83555    0.04861   11.56908
   4.74474    0.34260   23.90396    0.04889   11.58057
   4.76476    0.34603   23.97822    0.04918   11.59479
   4.78478    0.34950   24.04655    0.04947   11.59568
   4.80480    0.35302   24.11636    0.04976   11.61051
   4.82482    0.35658   24.18833    0.05006   11.61984
   4.84484    0.36019   24.25577    0.05035   11.62622
   4.86486    0.36384   24.32603    0.05065   11.63845
   4.88488    0.36753   24.40251    0.05094   11.64734
   4.90490    0.37128   24.47462    0.05124   11.66142
   4.92492    0.37507   24.54770    0.05154   11.67380
   4.94494    0.37891   24.62448    0.05184   11.68692
   4.96496    0.38280   24.70118    0.05214   11.69129
   4.98498    0.38674   24.77893    0.05245   11.70278
   5.00500    0.39073   24.85437    0.05275   11.71686
   5.02502    0.39478   24.93286    0.05306   11.72412
   5.04504    0.39888   25.01201    0.05337   11.73042
   5.06506    0.40303   25.09042    0.05368   11.74243
   5.08508    0.40724   25.17239    0.05399   11.75569
   5.10510    0.41151   25.25502    0.05430   11.76614
   5.12512    0.41583   25.33840    0.05461   11.77370
   5.14514    0.42021   25.42659    0.05493   11.78185
   5.16516    0.42465   25.50864    0.05524   11.80209
   5.18518    0.42916   25.59438    0.05556   11.80876
   5.20520    0.43372   25.68295    0.05588   11.81839
   5.22522    0.43835   25.77099    0.05620   11.83425
   5.24524    0.44304   25.85852    0.05652   11.83833
   5.26526    0.44780   25.94894    0.05685   11.85471
   5.28528    0.45263   26.03587    0.05717   11.87071
   5.30531    0.45753   26.12251    0.05750   11.86886
   5.32533    0.46249   26.21700    0.05783   11.88746
   5.34535    0.46753   26.30816    0.05816   11.90140
   5.36537    0.47264   26.40332    0.05849   11.91451
   5.38539    0.47783   26.49663    0.05882   11.92378
   5.40541    0.48308   26.59475    0.05916   11.93452
   5.42543    0.48842   26.69110    0.05949   11.95342
   5.44545    0.49384   26.78744    0.05983   11.95654
   5.46547    0.49933   26.88638    0.06017   11.98255
   5.48549    0.50491   26.98755    0.06051   11.98018
   5.50551    0.51057   27.08767    0.06086   12.00189
   5.52553    0.51632   27.19054    0.06120   12.00990
   5.54555    0.52216   27.28948    0.06155   12.02368
   5.56557    0.52808   27.39472    0.06190   12.03324
   5.58559    0.53410   27.50203    0.06225   12.04273
   5.60561    0.54020   27.60891    0.06260   12.05014
   5.62563    0.54640   27.72156    0.06295   12.06585
   5.64565    0.55270   27.83250    0.06331   12.07801
   5.66567    0.55910   27.94493    0.06367   12.08401
   5.68569    0.56559   28.05884    0.06403   12.10943
   5.70571    0.57220   28.17068    0.06439   12.12033
   5.72573    0.57891   28.28414    0.06475   12.13092
   5.74575    0.58572   28.40087    0.06512   12.14508
   5.76577    0.59265   28.51789    0.06548   12.16235
   5.78579    0.59969   28.63795    0.06585   12.16813
   5.80581    0.60684   28.75846    0.06622   12.18354
   5.82583    0.61411   28.87941    0.06660   12.19755
   5.84585    0.62150   29.00385    0.06697   12.20785
   5.86587    0.62902   29.13021    0.06735   12.22631
   5.88589    0.63666   29.25672    0.06772   12.23876
   5.90591    0.64443   29.38619    0.06811   12.24298
   5.92593    0.65233   29.51278    0.06849   12.26447
   5.94595    0.66037   29.64447    0.06887   12.27744
   5.96597    0.66854   29.77832    0.06926   12.28760
   5.98599    0.67686   29.91039    0.06965   12.30464
   6.00601    0.68531   30.04846    0.07004   12.31346
   6.02603    0.69392   30.18475    0.07043   12.32524
   6.04605    0.70268   30.32430    0.07083   12.34703
   6.06607    0.71159   30.46697    0.07122   12.36156
   6.08609    0.72067   30.60986    0.07163   12.36942
   6.10611    0.72990   30.75512    0.07203   12.39224
   6.12613    0.73931   30.90067    0.07243   12.41010
   6.14615    0.74889   31.04446    0.07284   12.42070
   6.16617    0.75863   31.19483    0.07324   12.43671
   6.18619    0.76856   31.34713    0.07366   12.44975
   6.20621    0.77868   31.49891    0.07407   12.46576
   6.22623    0.78898   31.65381    0.07448   12.47984
   6.24625    0.79947   31.81107    0.07490   12.48755
   6.26627    0.81016   31.97471    0.07532   12.50875
   6.28629    0.82105   32.13895    0.07574   12.52149
   6.30631    0.83216   32.30474    0.07617   12.53632
   6.32633    0.84347   32.47267    0.07660   12.55069
   6.34635    0.85501   32.64187    0.07703   12.56277
   6.36637    0.86677   32.81322    0.07746   12.58138
   6.38639    0.87876   32.98983    0.07789   12.59501
   6.40641    0.89099   33.16851    0.07833   12.61621
   6.42643    0.90347   33.34290    0.07877   12.62696
   6.44645    0.91619   33.52707    0.07921   12.64356
   6.46647    0.92917   33.70835    0.07966   12.66586
   6.48649    0.94241   33.89919    0.08011   12.67491
   6.50651    0.95593   34.08454    0.08056   12.69084
