#                                                           
#  /$$     /$$ /$$$$$$  /$$      /$$ /$$$$$$$   /$$$$$$     
# |  $$   /$$//$$__  $$| $$$    /$$$| $$__  $$ /$$__  $$    
#  \  $$ /$$/| $$  \ $$| $$$$  /$$$$| $$  \ $$| $$  \ $$    
#   \  $$$$/ | $$$$$$$$| $$ $$/$$ $$| $$$$$$$ | $$  | $$    
#    \  $$/  | $$__  $$| $$  $$$| $$| $$__  $$| $$  | $$    
#     | $$   | $$  | $$| $$\  $ | $$| $$  \ $$| $$  | $$    
#     | $$   | $$  | $$| $$ \/  | $$| $$$$$$$/|  $$$$$$/    
#     |__/   |__/  |__/|__/     |__/|_______/  \______/     
#                                                           
#             GPL Version 3.2.4 Revision 941                
#               http://www.yambo-code.org                   
#
# EELS @ Q(1)  [q->0 direction]:0.1000E-4  0.000     0.000   
#
#
# - Energies      are Teter Parametrization(93) (xc)
# - Wavefunctions are Teter Parametrization(93) (xc)
#
# - The Green`s function is resonant -
# - Using Shifted Grids -
# - [r,Vnl] *is* included -
#
#   BSK|Identifier              :7525
#      |Dimension               :199
#      |Bands                   :1 - 200
#      |Exchange           [res]: yes
#      |Correlation        [res]: no
#      |Kernel`s coupling       : no
#      |Exchange           [cpl]: no
#      |W interaction is bare   : no
#      |Correlation        [cpl]: no
#      |ALDA kernel in R-space  : no
#      |RL vectors    [exchange]:9045
#      |E/h energy range    [ev]:-1.000000 - -1.000000
#      |Coupling range     [o/o]: 100.0000 -  100.0000
#
#  E/ev[1]    eel /Im[2] eel /Re[3] eel0/Im[4] eel0/Re[5]
#
  0.00      -.101E-11  -.993      0.615E-11  -.983    
 0.1502E-1  0.4048E-4  -.9927     0.9863E-4  -.9832   
 0.3003E-1  0.4107E-4  -.9927     0.1002E-3  -.9832   
 0.4505E-1  0.4121E-4  -.9927     0.1007E-3  -.9833   
 0.6006E-1  0.4133E-4  -.9927     0.1011E-3  -.9833   
 0.7508E-1  0.4145E-4  -.9927     0.1015E-3  -.9833   
 0.9009E-1  0.4156E-4  -.9927     0.1019E-3  -.9833   
 0.1051     0.4167E-4  -.9927     0.1023E-3  -.9833   
 0.1201     0.4178E-4  -.9927     0.1027E-3  -.9833   
 0.1351     0.4189E-4  -.9927     0.1031E-3  -.9833   
 0.1502     0.4200E-4  -.9927     0.1035E-3  -.9833   
 0.1652     0.4211E-4  -.9927     0.1039E-3  -.9833   
 0.1802     0.4222E-4  -.9927     0.1043E-3  -.9833   
 0.1952     0.4233E-4  -.9927     0.1047E-3  -.9833   
 0.2102     0.4244E-4  -.9927     0.1051E-3  -.9833   
 0.2252     0.4255E-4  -.9927     0.1055E-3  -.9834   
 0.2402     0.4266E-4  -.9927     0.1059E-3  -.9834   
 0.2553     0.4277E-4  -.9927     0.1063E-3  -.9834   
 0.2703     0.4288E-4  -.9927     0.1067E-3  -.9834   
 0.2853     0.4299E-4  -.9927     0.1071E-3  -.9834   
 0.3003     0.4311E-4  -.9927     0.1075E-3  -.9834   
 0.3153     0.4322E-4  -.9927     0.1079E-3  -.9834   
 0.3303     0.4333E-4  -.9927     0.1084E-3  -.9834   
 0.3453     0.4345E-4  -.9927     0.1088E-3  -.9834   
 0.3604     0.4356E-4  -.9927     0.1092E-3  -.9834   
 0.3754     0.4368E-4  -.9927     0.1096E-3  -.9834   
 0.3904     0.4379E-4  -.9927     0.1101E-3  -.9834   
 0.4054     0.4391E-4  -.9927     0.1105E-3  -.9834   
 0.4204     0.4402E-4  -.9927     0.1109E-3  -.9834   
 0.4354     0.4414E-4  -.9927     0.1114E-3  -.9834   
 0.4505     0.4425E-4  -.9927     0.1118E-3  -.9834   
 0.4655     0.4437E-4  -.9927     0.1122E-3  -.9834   
 0.4805     0.4449E-4  -.9927     0.1127E-3  -.9834   
 0.4955     0.4461E-4  -.9927     0.1131E-3  -.9834   
 0.5105     0.4473E-4  -.9927     0.1136E-3  -.9834   
 0.5255     0.4484E-4  -.9927     0.1140E-3  -.9833   
 0.5405     0.4496E-4  -.9927     0.1145E-3  -.9833   
 0.5556     0.4508E-4  -.9927     0.1149E-3  -.9833   
 0.5706     0.4520E-4  -.9927     0.1154E-3  -.9833   
 0.5856     0.4533E-4  -.9927     0.1159E-3  -.9833   
 0.6006     0.4545E-4  -.9927     0.1163E-3  -.9833   
 0.6156     0.4557E-4  -.9927     0.1168E-3  -.9833   
 0.6306     0.4569E-4  -.9927     0.1173E-3  -.9833   
 0.6456     0.4581E-4  -.9927     0.1177E-3  -.9833   
 0.6607     0.4594E-4  -.9927     0.1182E-3  -.9833   
 0.6757     0.4606E-4  -.9927     0.1187E-3  -.9833   
 0.6907     0.4619E-4  -.9927     0.1192E-3  -.9833   
 0.7057     0.4631E-4  -.9927     0.1197E-3  -.9833   
 0.7207     0.4644E-4  -.9927     0.1201E-3  -.9833   
 0.7357     0.4656E-4  -.9927     0.1206E-3  -.9833   
 0.7508     0.4669E-4  -.9927     0.1211E-3  -.9833   
 0.7658     0.4682E-4  -.9927     0.1216E-3  -.9833   
 0.7808     0.4694E-4  -.9927     0.1221E-3  -.9833   
 0.7958     0.4707E-4  -.9927     0.1226E-3  -.9833   
 0.8108     0.4720E-4  -.9927     0.1231E-3  -.9833   
 0.8258     0.4733E-4  -.9927     0.1236E-3  -.9833   
 0.8408     0.4746E-4  -.9927     0.1242E-3  -.9833   
 0.8559     0.4759E-4  -.9927     0.1247E-3  -.9833   
 0.8709     0.4772E-4  -.9927     0.1252E-3  -.9833   
 0.8859     0.4785E-4  -.9927     0.1257E-3  -.9833   
 0.9009     0.4799E-4  -.9927     0.1262E-3  -.9832   
 0.9159     0.4812E-4  -.9927     0.1268E-3  -.9832   
 0.9309     0.4825E-4  -.9927     0.1273E-3  -.9832   
 0.9459     0.4838E-4  -.9927     0.1278E-3  -.9832   
 0.9610     0.4852E-4  -.9927     0.1284E-3  -.9832   
 0.9760     0.4865E-4  -.9927     0.1289E-3  -.9832   
 0.9910     0.4879E-4  -.9927     0.1294E-3  -.9832   
  1.006     0.4893E-4  -.9927     0.1300E-3  -.9832   
  1.021     0.4906E-4  -.9927     0.1305E-3  -.9832   
  1.036     0.4920E-4  -.9927     0.1311E-3  -.9832   
  1.051     0.4934E-4  -.9927     0.1317E-3  -.9832   
  1.066     0.4948E-4  -.9927     0.1322E-3  -.9832   
  1.081     0.4962E-4  -.9927     0.1328E-3  -.9832   
  1.096     0.4975E-4  -.9927     0.1334E-3  -.9832   
  1.111     0.4990E-4  -.9927     0.1339E-3  -.9832   
  1.126     0.5004E-4  -.9927     0.1345E-3  -.9831   
  1.141     0.5018E-4  -.9927     0.1351E-3  -.9831   
  1.156     0.5032E-4  -.9927     0.1357E-3  -.9831   
  1.171     0.5046E-4  -.9927     0.1363E-3  -.9831   
  1.186     0.5061E-4  -.9927     0.1368E-3  -.9831   
  1.201     0.5075E-4  -.9927     0.1374E-3  -.9831   
  1.216     0.5090E-4  -.9927     0.1380E-3  -.9831   
  1.231     0.5104E-4  -.9927     0.1386E-3  -.9831   
  1.246     0.5119E-4  -.9927     0.1392E-3  -.9831   
  1.261     0.5133E-4  -.9927     0.1399E-3  -.9831   
  1.276     0.5148E-4  -.9927     0.1405E-3  -.9831   
  1.291     0.5163E-4  -.9927     0.1411E-3  -.9830   
  1.306     0.5178E-4  -.9927     0.1417E-3  -.9830   
  1.321     0.5193E-4  -.9927     0.1423E-3  -.9830   
  1.336     0.5208E-4  -.9927     0.1430E-3  -.9830   
  1.351     0.5223E-4  -.9927     0.1436E-3  -.9830   
  1.366     0.5238E-4  -.9927     0.1442E-3  -.9830   
  1.381     0.5253E-4  -.9927     0.1449E-3  -.9830   
  1.396     0.5268E-4  -.9927     0.1455E-3  -.9830   
  1.411     0.5284E-4  -.9927     0.1462E-3  -.9830   
  1.426     0.5299E-4  -.9927     0.1468E-3  -.9830   
  1.441     0.5315E-4  -.9927     0.1475E-3  -.9830   
  1.456     0.5330E-4  -.9927     0.1482E-3  -.9829   
  1.471     0.5346E-4  -.9927     0.1488E-3  -.9829   
  1.486     0.5361E-4  -.9927     0.1495E-3  -.9829   
  1.502     0.5377E-4  -.9927     0.1502E-3  -.9829   
  1.517     0.5393E-4  -.9927     0.1509E-3  -.9829   
  1.532     0.5409E-4  -.9926     0.1516E-3  -.9829   
  1.547     0.5425E-4  -.9926     0.1523E-3  -.9829   
  1.562     0.5441E-4  -.9926     0.1530E-3  -.9829   
  1.577     0.5457E-4  -.9926     0.1537E-3  -.9828   
  1.592     0.5473E-4  -.9926     0.1544E-3  -.9828   
  1.607     0.5490E-4  -.9926     0.1551E-3  -.9828   
  1.622     0.5506E-4  -.9926     0.1558E-3  -.9828   
  1.637     0.5522E-4  -.9926     0.1565E-3  -.9828   
  1.652     0.5539E-4  -.9926     0.1572E-3  -.9828   
  1.667     0.5556E-4  -.9926     0.1580E-3  -.9828   
  1.682     0.5572E-4  -.9926     0.1587E-3  -.9828   
  1.697     0.5589E-4  -.9926     0.1595E-3  -.9827   
  1.712     0.5606E-4  -.9926     0.1602E-3  -.9827   
  1.727     0.5623E-4  -.9926     0.1610E-3  -.9827   
  1.742     0.5640E-4  -.9926     0.1617E-3  -.9827   
  1.757     0.5657E-4  -.9926     0.1625E-3  -.9827   
  1.772     0.5674E-4  -.9926     0.1632E-3  -.9827   
  1.787     0.5691E-4  -.9926     0.1640E-3  -.9827   
  1.802     0.5709E-4  -.9926     0.1648E-3  -.9826   
  1.817     0.5726E-4  -.9926     0.1656E-3  -.9826   
  1.832     0.5743E-4  -.9926     0.1664E-3  -.9826   
  1.847     0.5761E-4  -.9926     0.1672E-3  -.9826   
  1.862     0.5779E-4  -.9926     0.1680E-3  -.9826   
  1.877     0.5796E-4  -.9926     0.1688E-3  -.9826   
  1.892     0.5814E-4  -.9926     0.1696E-3  -.9826   
  1.907     0.5832E-4  -.9926     0.1704E-3  -.9825   
  1.922     0.5850E-4  -.9926     0.1712E-3  -.9825   
  1.937     0.5868E-4  -.9926     0.1721E-3  -.9825   
  1.952     0.5886E-4  -.9926     0.1729E-3  -.9825   
  1.967     0.5905E-4  -.9926     0.1738E-3  -.9825   
  1.982     0.5923E-4  -.9926     0.1746E-3  -.9825   
  1.997     0.5941E-4  -.9926     0.1755E-3  -.9824   
  2.012     0.5960E-4  -.9926     0.1763E-3  -.9824   
  2.027     0.5979E-4  -.9925     0.1772E-3  -.9824   
  2.042     0.5997E-4  -.9925     0.1781E-3  -.9824   
  2.057     0.6016E-4  -.9925     0.1790E-3  -.9824   
  2.072     0.6035E-4  -.9925     0.1799E-3  -.9824   
  2.087     0.6054E-4  -.9925     0.1807E-3  -.9823   
  2.102     0.6073E-4  -.9925     0.1816E-3  -.9823   
  2.117     0.6092E-4  -.9925     0.1826E-3  -.9823   
  2.132     0.6112E-4  -.9925     0.1835E-3  -.9823   
  2.147     0.6131E-4  -.9925     0.1844E-3  -.9823   
  2.162     0.6150E-4  -.9925     0.1853E-3  -.9823   
  2.177     0.6170E-4  -.9925     0.1863E-3  -.9822   
  2.192     0.6190E-4  -.9925     0.1872E-3  -.9822   
  2.207     0.6209E-4  -.9925     0.1882E-3  -.9822   
  2.222     0.6229E-4  -.9925     0.1891E-3  -.9822   
  2.237     0.6249E-4  -.9925     0.1901E-3  -.9822   
  2.252     0.6269E-4  -.9925     0.1911E-3  -.9821   
  2.267     0.6289E-4  -.9925     0.1920E-3  -.9821   
  2.282     0.6310E-4  -.9925     0.1930E-3  -.9821   
  2.297     0.6330E-4  -.9925     0.1940E-3  -.9821   
  2.312     0.6351E-4  -.9925     0.1950E-3  -.9821   
  2.327     0.6371E-4  -.9925     0.1960E-3  -.9820   
  2.342     0.6392E-4  -.9925     0.1971E-3  -.9820   
  2.357     0.6413E-4  -.9925     0.1981E-3  -.9820   
  2.372     0.6433E-4  -.9925     0.1991E-3  -.9820   
  2.387     0.6454E-4  -.9924     0.2002E-3  -.9820   
  2.402     0.6476E-4  -.9924     0.2012E-3  -.9819   
  2.417     0.6497E-4  -.9924     0.2023E-3  -.9819   
  2.432     0.6518E-4  -.9924     0.2033E-3  -.9819   
  2.447     0.6540E-4  -.9924     0.2044E-3  -.9819   
  2.462     0.6561E-4  -.9924     0.2055E-3  -.9819   
  2.477     0.6583E-4  -.9924     0.2066E-3  -.9818   
  2.492     0.6605E-4  -.9924     0.2077E-3  -.9818   
  2.508     0.6626E-4  -.9924     0.2088E-3  -.9818   
  2.523     0.6648E-4  -.9924     0.2099E-3  -.9818   
  2.538     0.6671E-4  -.9924     0.2111E-3  -.9817   
  2.553     0.6693E-4  -.9924     0.2122E-3  -.9817   
  2.568     0.6715E-4  -.9924     0.2133E-3  -.9817   
  2.583     0.6738E-4  -.9924     0.2145E-3  -.9817   
  2.598     0.6760E-4  -.9924     0.2157E-3  -.9817   
  2.613     0.6783E-4  -.9924     0.2168E-3  -.9816   
  2.628     0.6806E-4  -.9924     0.2180E-3  -.9816   
  2.643     0.6829E-4  -.9924     0.2192E-3  -.9816   
  2.658     0.6852E-4  -.9924     0.2204E-3  -.9816   
  2.673     0.6875E-4  -.9924     0.2217E-3  -.9815   
  2.688     0.6898E-4  -.9924     0.2229E-3  -.9815   
  2.703     0.6922E-4  -.9923     0.2241E-3  -.9815   
  2.718     0.6945E-4  -.9923     0.2254E-3  -.9815   
  2.733     0.6969E-4  -.9923     0.2266E-3  -.9814   
  2.748     0.6993E-4  -.9923     0.2279E-3  -.9814   
  2.763     0.7017E-4  -.9923     0.2292E-3  -.9814   
  2.778     0.7041E-4  -.9923     0.2304E-3  -.9814   
  2.793     0.7065E-4  -.9923     0.2317E-3  -.9813   
  2.808     0.7089E-4  -.9923     0.2331E-3  -.9813   
  2.823     0.7114E-4  -.9923     0.2344E-3  -.9813   
  2.838     0.7139E-4  -.9923     0.2357E-3  -.9813   
  2.853     0.7163E-4  -.9923     0.2371E-3  -.9812   
  2.868     0.7188E-4  -.9923     0.2384E-3  -.9812   
  2.883     0.7213E-4  -.9923     0.2398E-3  -.9812   
  2.898     0.7238E-4  -.9923     0.2412E-3  -.9811   
  2.913     0.7264E-4  -.9923     0.2426E-3  -.9811   
  2.928     0.7289E-4  -.9923     0.2440E-3  -.9811   
  2.943     0.7315E-4  -.9923     0.2454E-3  -.9811   
  2.958     0.7341E-4  -.9922     0.2468E-3  -.9810   
  2.973     0.7366E-4  -.9922     0.2482E-3  -.9810   
  2.988     0.7392E-4  -.9922     0.2497E-3  -.9810   
  3.003     0.7419E-4  -.9922     0.2512E-3  -.9809   
  3.018     0.7445E-4  -.9922     0.2526E-3  -.9809   
  3.033     0.7471E-4  -.9922     0.2541E-3  -.9809   
  3.048     0.7498E-4  -.9922     0.2556E-3  -.9809   
  3.063     0.7525E-4  -.9922     0.2572E-3  -.9808   
  3.078     0.7552E-4  -.9922     0.2587E-3  -.9808   
  3.093     0.7579E-4  -.9922     0.2602E-3  -.9808   
  3.108     0.7606E-4  -.9922     0.2618E-3  -.9807   
  3.123     0.7633E-4  -.9922     0.2634E-3  -.9807   
  3.138     0.7661E-4  -.9922     0.2650E-3  -.9807   
  3.153     0.7689E-4  -.9922     0.2666E-3  -.9806   
  3.168     0.7716E-4  -.9922     0.2682E-3  -.9806   
  3.183     0.7744E-4  -.9922     0.2698E-3  -.9806   
  3.198     0.7773E-4  -.9921     0.2715E-3  -.9805   
  3.213     0.7801E-4  -.9921     0.2731E-3  -.9805   
  3.228     0.7829E-4  -.9921     0.2748E-3  -.9805   
  3.243     0.7858E-4  -.9921     0.2765E-3  -.9804   
  3.258     0.7887E-4  -.9921     0.2782E-3  -.9804   
  3.273     0.7916E-4  -.9921     0.2799E-3  -.9804   
  3.288     0.7945E-4  -.9921     0.2817E-3  -.9803   
  3.303     0.7974E-4  -.9921     0.2834E-3  -.9803   
  3.318     0.8004E-4  -.9921     0.2852E-3  -.9803   
  3.333     0.8034E-4  -.9921     0.2870E-3  -.9802   
  3.348     0.8064E-4  -.9921     0.2888E-3  -.9802   
  3.363     0.8094E-4  -.9921     0.2906E-3  -.9802   
  3.378     0.8124E-4  -.9921     0.2925E-3  -.9801   
  3.393     0.8154E-4  -.9921     0.2943E-3  -.9801   
  3.408     0.8185E-4  -.9921     0.2962E-3  -.9800   
  3.423     0.8216E-4  -.9920     0.2981E-3  -.9800   
  3.438     0.8247E-4  -.9920     0.3000E-3  -.9800   
  3.453     0.8278E-4  -.9920     0.3019E-3  -.9799   
  3.468     0.8309E-4  -.9920     0.3039E-3  -.9799   
  3.483     0.8340E-4  -.9920     0.3059E-3  -.9799   
  3.498     0.8372E-4  -.9920     0.3078E-3  -.9798   
  3.514     0.8404E-4  -.9920     0.3099E-3  -.9798   
  3.529     0.8436E-4  -.9920     0.3119E-3  -.9797   
  3.544     0.8468E-4  -.9920     0.3139E-3  -.9797   
  3.559     0.8501E-4  -.9920     0.3160E-3  -.9797   
  3.574     0.8534E-4  -.9920     0.3181E-3  -.9796   
  3.589     0.8566E-4  -.9920     0.3202E-3  -.9796   
  3.604     0.8600E-4  -.9920     0.3223E-3  -.9795   
  3.619     0.8633E-4  -.9919     0.3245E-3  -.9795   
  3.634     0.8666E-4  -.9919     0.3267E-3  -.9795   
  3.649     0.8700E-4  -.9919     0.3289E-3  -.9794   
  3.664     0.8734E-4  -.9919     0.3311E-3  -.9794   
  3.679     0.8768E-4  -.9919     0.3333E-3  -.9793   
  3.694     0.8802E-4  -.9919     0.3356E-3  -.9793   
  3.709     0.8837E-4  -.9919     0.3379E-3  -.9792   
  3.724     0.8872E-4  -.9919     0.3402E-3  -.9792   
  3.739     0.8907E-4  -.9919     0.3425E-3  -.9792   
  3.754     0.8942E-4  -.9919     0.3449E-3  -.9791   
  3.769     0.8977E-4  -.9919     0.3473E-3  -.9791   
  3.784     0.9013E-4  -.9919     0.3497E-3  -.9790   
  3.799     0.9049E-4  -.9918     0.3521E-3  -.9790   
  3.814     0.9085E-4  -.9918     0.3546E-3  -.9789   
  3.829     0.9121E-4  -.9918     0.3571E-3  -.9789   
  3.844     0.9158E-4  -.9918     0.3596E-3  -.9788   
  3.859     0.9195E-4  -.9918     0.3621E-3  -.9788   
  3.874     0.9232E-4  -.9918     0.3647E-3  -.9787   
  3.889     0.9269E-4  -.9918     0.3673E-3  -.9787   
  3.904     0.9307E-4  -.9918     0.3699E-3  -.9786   
  3.919     0.9344E-4  -.9918     0.3725E-3  -.9786   
  3.934     0.9382E-4  -.9918     0.3752E-3  -.9785   
  3.949     0.9421E-4  -.9918     0.3779E-3  -.9785   
  3.964     0.9459E-4  -.9917     0.3806E-3  -.9784   
  3.979     0.9498E-4  -.9917     0.3834E-3  -.9784   
  3.994     0.9537E-4  -.9917     0.3862E-3  -.9783   
  4.009     0.9576E-4  -.9917     0.3890E-3  -.9783   
  4.024     0.9616E-4  -.9917     0.3919E-3  -.9782   
  4.039     0.9655E-4  -.9917     0.3948E-3  -.9782   
  4.054     0.9696E-4  -.9917     0.3977E-3  -.9781   
  4.069     0.9736E-4  -.9917     0.4007E-3  -.9781   
  4.084     0.9776E-4  -.9917     0.4036E-3  -.9780   
  4.099     0.9817E-4  -.9917     0.4067E-3  -.9780   
  4.114     0.9858E-4  -.9916     0.4097E-3  -.9779   
  4.129     0.9900E-4  -.9916     0.4128E-3  -.9779   
  4.144     0.9942E-4  -.9916     0.4159E-3  -.9778   
  4.159     0.9984E-4  -.9916     0.4191E-3  -.9778   
  4.174     0.1003E-3  -.9916     0.4223E-3  -.9777   
  4.189     0.1007E-3  -.9916     0.4255E-3  -.9777   
  4.204     0.1011E-3  -.9916     0.4288E-3  -.9776   
  4.219     0.1015E-3  -.9916     0.4321E-3  -.9775   
  4.234     0.1020E-3  -.9916     0.4355E-3  -.9775   
  4.249     0.1024E-3  -.9916     0.4389E-3  -.9774   
  4.264     0.1029E-3  -.9915     0.4423E-3  -.9774   
  4.279     0.1033E-3  -.9915     0.4457E-3  -.9773   
  4.294     0.1037E-3  -.9915     0.4493E-3  -.9772   
  4.309     0.1042E-3  -.9915     0.4528E-3  -.9772   
  4.324     0.1046E-3  -.9915     0.4564E-3  -.9771   
  4.339     0.1051E-3  -.9915     0.4600E-3  -.9771   
  4.354     0.1056E-3  -.9915     0.4637E-3  -.9770   
  4.369     0.1060E-3  -.9915     0.4674E-3  -.9769   
  4.384     0.1065E-3  -.9915     0.4712E-3  -.9769   
  4.399     0.1070E-3  -.9914     0.4750E-3  -.9768   
  4.414     0.1074E-3  -.9914     0.4789E-3  -.9767   
  4.429     0.1079E-3  -.9914     0.4828E-3  -.9767   
  4.444     0.1084E-3  -.9914     0.4868E-3  -.9766   
  4.459     0.1089E-3  -.9914     0.4908E-3  -.9765   
  4.474     0.1094E-3  -.9914     0.4948E-3  -.9765   
  4.489     0.1098E-3  -.9914     0.4989E-3  -.9764   
  4.505     0.1103E-3  -.9914     0.5031E-3  -.9763   
  4.520     0.1108E-3  -.9914     0.5073E-3  -.9763   
  4.535     0.1113E-3  -.9913     0.5116E-3  -.9762   
  4.550     0.1118E-3  -.9913     0.5159E-3  -.9761   
  4.565     0.1123E-3  -.9913     0.5203E-3  -.9760   
  4.580     0.1129E-3  -.9913     0.5247E-3  -.9760   
  4.595     0.1134E-3  -.9913     0.5292E-3  -.9759   
  4.610     0.1139E-3  -.9913     0.5337E-3  -.9758   
  4.625     0.1144E-3  -.9913     0.5383E-3  -.9758   
  4.640     0.1149E-3  -.9913     0.5430E-3  -.9757   
  4.655     0.1155E-3  -.9912     0.5477E-3  -.9756   
  4.670     0.1160E-3  -.9912     0.5525E-3  -.9755   
  4.685     0.1165E-3  -.9912     0.5574E-3  -.9755   
  4.700     0.1171E-3  -.9912     0.5623E-3  -.9754   
  4.715     0.1176E-3  -.9912     0.5672E-3  -.9753   
  4.730     0.1182E-3  -.9912     0.5723E-3  -.9752   
  4.745     0.1187E-3  -.9912     0.5774E-3  -.9751   
  4.760     0.1193E-3  -.9912     0.5826E-3  -.9751   
  4.775     0.1199E-3  -.9911     0.5879E-3  -.9750   
  4.790     0.1204E-3  -.9911     0.5932E-3  -.9749   
  4.805     0.1210E-3  -.9911     0.5986E-3  -.9748   
  4.820     0.1216E-3  -.9911     0.6040E-3  -.9747   
  4.835     0.1221E-3  -.9911     0.6096E-3  -.9746   
  4.850     0.1227E-3  -.9911     0.6152E-3  -.9746   
  4.865     0.1233E-3  -.9911     0.6209E-3  -.9745   
  4.880     0.1239E-3  -.9911     0.6267E-3  -.9744   
  4.895     0.1245E-3  -.9910     0.6326E-3  -.9743   
  4.910     0.1251E-3  -.9910     0.6385E-3  -.9742   
  4.925     0.1257E-3  -.9910     0.6446E-3  -.9741   
  4.940     0.1263E-3  -.9910     0.6507E-3  -.9740   
  4.955     0.1270E-3  -.9910     0.6569E-3  -.9739   
  4.970     0.1276E-3  -.9910     0.6632E-3  -.9738   
  4.985     0.1282E-3  -.9910     0.6696E-3  -.9737   
  5.000     0.1288E-3  -.9909     0.6761E-3  -.9736   
