#                                                           
# Y88b    /   e           e    e      888~~\    ,88~-_      
#  Y88b  /   d8b         d8b  d8b     888   |  d888   \     
#   Y88b/   /Y88b       d888bdY88b    888 _/  88888    |    
#    Y8Y   /  Y88b     / Y88Y Y888b   888  \  88888    |    
#     Y   /____Y88b   /   YY   Y888b  888   |  Y888   /     
#    /   /      Y88b /          Y888b 888__/    `88_-~      
#                                                           
#             GPL Version 3.1.2 Revision 297                
#               http://www.yambo-code.org                   
#
# Polarization (-<<X>>) [volume] @ IQ 1 :0.1000E-4  0.000     0.000
#
# - The gauge is transverse + [r,Vnl] -
#
# BSK|Identifier              :7358
#    |Dimension               :199
#    |Bands                   :1 - 200
#    |Exchange           [res]: yes
#    |Correlation        [res]: no
#    |Kernel`s coupling       : no
#    |Exchange           [cpl]: no
#    |Correlation        [cpl]: no
#    |ALDA kernel in R-space  : no
#    |RL vectors    [exchange]:9045
#    |E/h energy range    [ev]:-1.000000 - -1.000000
#    |Coupling range     [o/o]: 100.0000 -  100.0000
#
#  E/ev[1]    alpha/Im   alpha/Re   alphao/Im  alphao/Re
#
   0.00000    0.05168    6.46882    0.12822   10.44835
   0.01502    0.05181    6.47667    0.12870   10.46762
   0.03003    0.05194    6.48438    0.12918   10.48689
   0.04505    0.05207    6.49224    0.12966   10.50646
   0.06006    0.05221    6.50009    0.13014   10.52587
   0.07508    0.05234    6.50795    0.13063   10.54544
   0.09009    0.05247    6.51580    0.13112   10.56515
   0.10511    0.05260    6.52366    0.13161   10.58487
   0.12012    0.05274    6.53152    0.13211   10.60458
   0.13514    0.05287    6.53952    0.13260   10.62444
   0.15015    0.05301    6.54738    0.13310   10.64445
   0.16517    0.05314    6.55538    0.13361   10.66446
   0.18018    0.05328    6.56338    0.13411   10.68447
   0.19520    0.05342    6.57139    0.13462   10.70463
   0.21021    0.05356    6.57939    0.13514   10.72494
   0.22523    0.05369    6.58740    0.13565   10.74524
   0.24024    0.05383    6.59555    0.13617   10.76570
   0.25526    0.05397    6.60370    0.13669   10.78615
   0.27027    0.05411    6.61171    0.13722   10.80676
   0.28529    0.05425    6.61986    0.13774   10.82736
   0.30030    0.05439    6.62801    0.13827   10.84811
   0.31532    0.05453    6.63616    0.13881   10.86886
   0.33033    0.05468    6.64446    0.13934   10.88976
   0.34535    0.05482    6.65262    0.13988   10.91066
   0.36036    0.05496    6.66092    0.14043   10.93171
   0.37538    0.05510    6.66907    0.14097   10.95291
   0.39039    0.05525    6.67737    0.14152   10.97410
   0.40541    0.05539    6.68567    0.14207   10.99530
   0.42042    0.05554    6.69397    0.14263   11.01664
   0.43544    0.05569    6.70242    0.14319   11.03814
   0.45045    0.05583    6.71072    0.14375   11.05963
   0.46547    0.05598    6.71917    0.14432   11.08127
   0.48048    0.05613    6.72762    0.14489   11.10306
   0.49550    0.05628    6.73607    0.14546   11.12485
   0.51051    0.05643    6.74451    0.14603   11.14664
   0.52553    0.05657    6.75296    0.14661   11.16857
   0.54054    0.05673    6.76141    0.14720   11.19066
   0.55556    0.05688    6.77001    0.14778   11.21275
   0.57057    0.05703    6.77861    0.14837   11.23498
   0.58559    0.05718    6.78706    0.14897   11.25736
   0.60060    0.05733    6.79565    0.14956   11.27974
   0.61562    0.05749    6.80425    0.15016   11.30227
   0.63063    0.05764    6.81299    0.15077   11.32480
   0.64565    0.05780    6.82159    0.15137   11.34748
   0.66066    0.05795    6.83034    0.15199   11.37031
   0.67568    0.05811    6.83908    0.15260   11.39314
   0.69069    0.05826    6.84783    0.15322   11.41611
   0.70571    0.05842    6.85657    0.15384   11.43908
   0.72072    0.05858    6.86532    0.15447   11.46221
   0.73574    0.05874    6.87406    0.15510   11.48548
   0.75075    0.05890    6.88296    0.15573   11.50890
   0.76577    0.05906    6.89185    0.15637   11.53232
   0.78078    0.05922    6.90074    0.15701   11.55574
   0.79580    0.05938    6.90964    0.15766   11.57945
   0.81081    0.05954    6.91853    0.15831   11.60317
   0.82583    0.05971    6.92742    0.15896   11.62688
   0.84084    0.05987    6.93647    0.15962   11.65075
   0.85586    0.06003    6.94536    0.16029   11.67476
   0.87087    0.06020    6.95440    0.16095   11.69892
   0.88589    0.06036    6.96344    0.16162   11.72308
   0.90090    0.06053    6.97263    0.16230   11.74739
   0.91592    0.06070    6.98167    0.16298   11.77185
   0.93093    0.06087    6.99086    0.16366   11.79631
   0.94595    0.06104    6.99991    0.16435   11.82106
   0.96096    0.06120    7.00910    0.16504   11.84566
   0.97598    0.06137    7.01829    0.16574   11.87057
   0.99099    0.06155    7.02762    0.16644   11.89547
   1.00601    0.06172    7.03681    0.16714   11.92052
   1.02102    0.06189    7.04615    0.16785   11.94557
   1.03604    0.06206    7.05534    0.16857   11.97091
   1.05105    0.06224    7.06468    0.16929   11.99626
   1.06607    0.06241    7.07402    0.17001   12.02176
   1.08108    0.06259    7.08350    0.17074   12.04725
   1.09610    0.06276    7.09284    0.17147   12.07289
   1.11111    0.06294    7.10233    0.17221   12.09868
   1.12613    0.06312    7.11182    0.17295   12.12462
   1.14114    0.06330    7.12130    0.17370   12.15071
   1.15616    0.06348    7.13079    0.17445   12.17680
   1.17117    0.06366    7.14028    0.17521   12.20303
   1.18619    0.06384    7.14991    0.17597   12.22942
   1.20120    0.06402    7.15954    0.17674   12.25580
   1.21622    0.06420    7.16903    0.17751   12.28248
   1.23123    0.06438    7.17881    0.17829   12.30916
   1.24625    0.06457    7.18845    0.17907   12.33599
   1.26126    0.06475    7.19808    0.17986   12.36282
   1.27628    0.06494    7.20787    0.18065   12.38995
   1.29129    0.06513    7.21765    0.18145   12.41707
   1.30631    0.06531    7.22743    0.18225   12.44434
   1.32132    0.06550    7.23721    0.18306   12.47176
   1.33634    0.06569    7.24714    0.18388   12.49933
   1.35135    0.06588    7.25693    0.18470   12.52705
   1.36637    0.06607    7.26686    0.18552   12.55477
   1.38138    0.06626    7.27679    0.18635   12.58264
   1.39640    0.06646    7.28672    0.18719   12.61065
   1.41141    0.06665    7.29680    0.18803   12.63881
   1.42643    0.06685    7.30673    0.18888   12.66712
   1.44144    0.06704    7.31681    0.18973   12.69558
   1.45646    0.06724    7.32689    0.19059   12.72404
   1.47147    0.06743    7.33697    0.19146   12.75280
   1.48649    0.06763    7.34720    0.19233   12.78155
   1.50150    0.06783    7.35728    0.19320   12.81046
   1.51652    0.06803    7.36750    0.19409   12.83951
   1.53153    0.06823    7.37773    0.19498   12.86871
   1.54655    0.06843    7.38796    0.19587   12.89806
   1.56156    0.06864    7.39833    0.19677   12.92756
   1.57658    0.06884    7.40856    0.19768   12.95720
   1.59159    0.06905    7.41894    0.19860   12.98685
   1.60661    0.06925    7.42931    0.19952   13.01679
   1.62162    0.06946    7.43969    0.20044   13.04673
   1.63664    0.06967    7.45021    0.20138   13.07697
   1.65165    0.06987    7.46074    0.20232   13.10720
   1.66667    0.07008    7.47111    0.20326   13.13774
   1.68168    0.07029    7.48178    0.20422   13.16827
   1.69670    0.07051    7.49231    0.20518   13.19895
   1.71171    0.07072    7.50283    0.20614   13.22979
   1.72673    0.07093    7.51350    0.20712   13.26091
   1.74174    0.07115    7.52418    0.20810   13.29204
   1.75676    0.07136    7.53485    0.20909   13.32332
   1.77177    0.07158    7.54567    0.21008   13.35474
   1.78679    0.07180    7.55634    0.21108   13.38631
   1.80180    0.07202    7.56716    0.21209   13.41818
   1.81682    0.07223    7.57798    0.21311   13.45005
   1.83183    0.07246    7.58880    0.21413   13.48206
   1.84685    0.07268    7.59977    0.21517   13.51423
   1.86186    0.07290    7.61074    0.21620   13.54669
   1.87688    0.07312    7.62156    0.21725   13.57915
   1.89189    0.07335    7.63268    0.21831   13.61191
   1.90691    0.07358    7.64365    0.21937   13.64467
   1.92192    0.07380    7.65476    0.22044   13.67772
   1.93694    0.07403    7.66588    0.22151   13.71092
   1.95195    0.07426    7.67700    0.22260   13.74412
   1.96697    0.07449    7.68811    0.22369   13.77762
   1.98198    0.07472    7.69938    0.22479   13.81127
   1.99700    0.07496    7.71049    0.22590   13.84521
   2.01201    0.07519    7.72176    0.22702   13.87916
   2.02703    0.07543    7.73317    0.22815   13.91325
   2.04204    0.07566    7.74444    0.22928   13.94764
   2.05706    0.07590    7.75585    0.23043   13.98217
   2.07207    0.07614    7.76726    0.23158   14.01671
   2.08709    0.07638    7.77868    0.23274   14.05154
   2.10210    0.07662    7.79024    0.23391   14.08667
   2.11712    0.07686    7.80165    0.23509   14.12180
   2.13213    0.07711    7.81321    0.23627   14.15723
   2.14715    0.07735    7.82478    0.23747   14.19280
   2.16216    0.07760    7.83649    0.23868   14.22852
   2.17718    0.07784    7.84820    0.23989   14.26439
   2.19219    0.07809    7.85991    0.24111   14.30041
   2.20721    0.07834    7.87161    0.24235   14.33673
   2.22222    0.07859    7.88332    0.24359   14.37319
   2.23724    0.07885    7.89518    0.24484   14.40980
   2.25225    0.07910    7.90704    0.24611   14.44671
   2.26727    0.07935    7.91890    0.24738   14.48377
   2.28228    0.07961    7.93090    0.24866   14.52097
   2.29730    0.07987    7.94276    0.24995   14.55832
   2.31231    0.08013    7.95477    0.25126   14.59597
   2.32733    0.08039    7.96692    0.25257   14.63377
   2.34234    0.08065    7.97893    0.25389   14.67171
   2.35736    0.08091    7.99108    0.25522   14.70996
   2.37237    0.08118    8.00324    0.25657   14.74835
   2.38739    0.08144    8.01554    0.25792   14.78689
   2.40240    0.08171    8.02770    0.25929   14.82572
   2.41742    0.08198    8.04000    0.26066   14.86470
   2.43243    0.08225    8.05230    0.26205   14.90398
   2.44745    0.08252    8.06475    0.26345   14.94341
   2.46246    0.08279    8.07705    0.26486   14.98299
   2.47748    0.08306    8.08951    0.26628   15.02286
   2.49249    0.08334    8.10210    0.26771   15.06288
   2.50751    0.08362    8.11456    0.26916   15.10320
   2.52252    0.08389    8.12715    0.27061   15.14366
   2.53754    0.08417    8.13975    0.27208   15.18442
   2.55255    0.08446    8.15235    0.27356   15.22533
   2.56757    0.08474    8.16510    0.27505   15.26654
   2.58258    0.08502    8.17785    0.27656   15.30789
   2.59760    0.08531    8.19059    0.27808   15.34955
   2.61261    0.08560    8.20349    0.27961   15.39135
   2.62763    0.08588    8.21638    0.28115   15.43344
   2.64264    0.08617    8.22928    0.28270   15.47568
   2.65766    0.08647    8.24218    0.28427   15.51822
   2.67267    0.08676    8.25522    0.28585   15.56106
   2.68769    0.08706    8.26826    0.28745   15.60405
   2.70270    0.08735    8.28131    0.28905   15.64733
   2.71772    0.08765    8.29450    0.29068   15.69076
   2.73273    0.08795    8.30769    0.29231   15.73448
   2.74775    0.08825    8.32088    0.29396   15.77851
   2.76276    0.08855    8.33422    0.29562   15.82283
   2.77778    0.08886    8.34742    0.29730   15.86729
   2.79279    0.08917    8.36090    0.29899   15.91191
   2.80781    0.08947    8.37424    0.30070   15.95697
   2.82282    0.08978    8.38773    0.30242   16.00218
   2.83784    0.09010    8.40122    0.30416   16.04768
   2.85285    0.09041    8.41471    0.30591   16.09348
   2.86787    0.09072    8.42835    0.30767   16.13958
   2.88288    0.09104    8.44198    0.30945   16.18583
   2.89790    0.09136    8.45562    0.31125   16.23237
   2.91291    0.09168    8.46940    0.31306   16.27921
   2.92793    0.09200    8.48319    0.31489   16.32635
   2.94294    0.09233    8.49697    0.31674   16.37363
   2.95796    0.09265    8.51091    0.31860   16.42136
   2.97297    0.09298    8.52484    0.32048   16.46923
   2.98799    0.09331    8.53877    0.32237   16.51756
   3.00300    0.09364    8.55286    0.32428   16.56602
   3.01802    0.09397    8.56694    0.32621   16.61479
   3.03303    0.09431    8.58102    0.32816   16.66385
   3.04805    0.09464    8.59525    0.33012   16.71336
   3.06306    0.09498    8.60948    0.33210   16.76302
   3.07808    0.09532    8.62371    0.33410   16.81297
   3.09309    0.09567    8.63808    0.33612   16.86321
   3.10811    0.09601    8.65246    0.33816   16.91376
   3.12312    0.09636    8.66699    0.34021   16.96475
   3.13814    0.09671    8.68137    0.34228   17.01589
   3.15315    0.09706    8.69589    0.34438   17.06747
   3.16817    0.09741    8.71057    0.34649   17.11920
   3.18318    0.09777    8.72524    0.34862   17.17137
   3.19820    0.09812    8.73991    0.35077   17.22384
   3.21321    0.09848    8.75459    0.35294   17.27661
   3.22823    0.09884    8.76941    0.35513   17.32968
   3.24324    0.09921    8.78438    0.35735   17.38319
   3.25826    0.09957    8.79920    0.35958   17.43699
   3.27327    0.09994    8.81417    0.36183   17.49109
   3.28829    0.10031    8.82929    0.36411   17.54549
   3.30330    0.10068    8.84426    0.36640   17.60034
   3.31832    0.10105    8.85953    0.36872   17.65548
   3.33333    0.10143    8.87465    0.37107   17.71091
   3.34835    0.10181    8.88992    0.37343   17.76679
   3.36336    0.10219    8.90518    0.37581   17.82297
   3.37838    0.10257    8.92060    0.37822   17.87959
   3.39339    0.10296    8.93602    0.38066   17.93651
   3.40841    0.10334    8.95158    0.38311   17.99372
   3.42342    0.10373    8.96699    0.38559   18.05138
   3.43844    0.10413    8.98271    0.38810   18.10949
   3.45345    0.10452    8.99827    0.39063   18.16789
   3.46847    0.10492    9.01398    0.39318   18.22659
   3.48348    0.10532    9.02984    0.39576   18.28573
   3.49850    0.10572    9.04570    0.39837   18.34531
   3.51351    0.10612    9.06156    0.40100   18.40534
   3.52853    0.10653    9.07757    0.40365   18.46567
   3.54354    0.10694    9.09358    0.40634   18.52644
   3.55856    0.10735    9.10959    0.40905   18.58751
   3.57357    0.10776    9.12574    0.41179   18.64917
   3.58859    0.10818    9.14190    0.41455   18.71113
   3.60360    0.10860    9.15820    0.41735   18.77353
   3.61862    0.10902    9.17451    0.42017   18.83638
   3.63363    0.10945    9.19096    0.42302   18.89952
   3.64865    0.10987    9.20741    0.42590   18.96326
   3.66366    0.11030    9.22387    0.42881   19.02729
   3.67868    0.11074    9.24047    0.43175   19.09192
   3.69369    0.11117    9.25722    0.43472   19.15684
   3.70871    0.11161    9.27382    0.43772   19.22221
   3.72372    0.11205    9.29072    0.44076   19.28817
   3.73874    0.11249    9.30747    0.44382   19.35443
   3.75375    0.11294    9.32451    0.44692   19.42127
   3.76877    0.11339    9.34141    0.45005   19.48857
   3.78378    0.11384    9.35846    0.45321   19.55631
   3.79880    0.11430    9.37565    0.45641   19.62449
   3.81381    0.11475    9.39284    0.45964   19.69327
   3.82883    0.11522    9.41004    0.46290   19.76234
   3.84384    0.11568    9.42738    0.46620   19.83200
   3.85886    0.11615    9.44472    0.46954   19.90226
   3.87387    0.11662    9.46221    0.47291   19.97297
   3.88889    0.11709    9.47985    0.47632   20.04412
   3.90390    0.11756    9.49734    0.47976   20.11571
   3.91892    0.11804    9.51513    0.48325   20.18804
   3.93393    0.11853    9.53277    0.48677   20.26067
   3.94895    0.11901    9.55070    0.49033   20.33404
   3.96396    0.11950    9.56849    0.49393   20.40786
   3.97898    0.11999    9.58657    0.49757   20.48212
   3.99399    0.12049    9.60451    0.50125   20.55697
   4.00901    0.12099    9.62274    0.50497   20.63242
   4.02402    0.12149    9.64082    0.50873   20.70846
   4.03904    0.12199    9.65920    0.51254   20.78509
   4.05405    0.12250    9.67758    0.51639   20.86217
   4.06907    0.12301    9.69596    0.52028   20.93998
   4.08408    0.12353    9.71449    0.52422   21.01825
   4.09910    0.12405    9.73302    0.52820   21.09725
   4.11411    0.12457    9.75170    0.53223   21.17670
   4.12913    0.12509    9.77037    0.53630   21.25674
   4.14414    0.12562    9.78920    0.54042   21.33752
   4.15916    0.12616    9.80817    0.54459   21.41890
   4.17417    0.12669    9.82714    0.54881   21.50087
   4.18919    0.12723    9.84612    0.55308   21.58343
   4.20420    0.12778    9.86524    0.55739   21.66673
   4.21922    0.12832    9.88451    0.56176   21.75062
   4.23423    0.12888    9.90377    0.56618   21.83526
   4.24925    0.12943    9.92319    0.57066   21.92049
   4.26426    0.12999    9.94261    0.57518   22.00631
   4.27928    0.13055    9.96217    0.57976   22.09287
   4.29429    0.13112    9.98189    0.58440   22.18018
   4.30931    0.13169   10.00160    0.58909   22.26822
   4.32432    0.13226   10.02132    0.59384   22.35686
   4.33934    0.13284   10.04133    0.59865   22.44624
   4.35435    0.13343   10.06119    0.60351   22.53636
   4.36937    0.13401   10.08135    0.60844   22.62722
   4.38438    0.13461   10.10151    0.61342   22.71883
   4.39940    0.13520   10.12166    0.61847   22.81117
   4.41441    0.13580   10.14212    0.62358   22.90426
   4.42943    0.13640   10.16243    0.62876   22.99808
   4.44444    0.13701   10.18303    0.63400   23.09280
   4.45946    0.13763   10.20363    0.63931   23.18826
   4.47447    0.13824   10.22424    0.64468   23.28445
   4.48949    0.13886   10.24514    0.65012   23.38154
   4.50450    0.13949   10.26604    0.65563   23.47937
   4.51952    0.14012   10.28693    0.66121   23.57808
   4.53453    0.14076   10.30798    0.66687   23.67769
   4.54955    0.14140   10.32918    0.67260   23.77804
   4.56456    0.14204   10.35052    0.67840   23.87928
   4.57958    0.14269   10.37187    0.68427   23.98140
   4.59459    0.14334   10.39336    0.69023   24.08442
   4.60961    0.14400   10.41485    0.69626   24.18833
   4.62462    0.14467   10.43649    0.70237   24.29312
   4.63964    0.14534   10.45828    0.70857   24.39895
   4.65465    0.14601   10.48022    0.71484   24.50567
   4.66967    0.14669   10.50216    0.72121   24.61329
   4.68469    0.14737   10.52424    0.72765   24.72179
   4.69970    0.14806   10.54633    0.73418   24.83132
   4.71472    0.14876   10.56856    0.74081   24.94190
   4.72973    0.14946   10.59094    0.74752   25.05336
   4.74474    0.15016   10.61347    0.75433   25.16602
   4.75976    0.15087   10.63600    0.76122   25.27955
   4.77478    0.15159   10.65883    0.76822   25.39413
   4.78979    0.15231   10.68151    0.77531   25.50975
   4.80481    0.15304   10.70448    0.78250   25.62655
   4.81982    0.15377   10.72746    0.78979   25.74439
   4.83484    0.15451   10.75058    0.79719   25.86326
   4.84985    0.15525   10.77385    0.80469   25.98333
   4.86487    0.15600   10.79727    0.81229   26.10443
   4.87988    0.15676   10.82069    0.82001   26.22671
   4.89490    0.15752   10.84426    0.82783   26.35018
   4.90991    0.15828   10.86798    0.83577   26.47484
   4.92492    0.15906   10.89184    0.84383   26.60068
   4.93994    0.15984   10.91570    0.85200   26.72771
   4.95496    0.16062   10.93972    0.86029   26.85607
   4.96997    0.16142   10.96388    0.86871   26.98547
   4.98499    0.16221   10.98818    0.87724   27.11635
   5.00000    0.16302   11.01264    0.88591   27.24842
   5.01502    0.16383   11.03710    0.89471   27.38182
   5.03003    0.16465   11.06170    0.90363   27.51656
   5.04505    0.16547   11.08661    0.91270   27.65263
   5.06006    0.16631   11.11151    0.92190   27.79004
   5.07508    0.16714   11.13641    0.93124   27.92877
   5.09009    0.16799   11.16161    0.94072   28.06899
