#  __  __   ________   ___ __ __    _______   ______        
# /_/\/_/\ /_______/\ /__//_//_/\ /_______/\ /_____/\       
# \ \ \ \ \\::: _  \ \\::\| \| \ \\::: _  \ \\:::_ \ \      
#  \:\_\ \ \\::(_)  \ \\:.      \ \\::(_)  \/_\:\ \ \ \     
#   \::::_\/ \:: __  \ \\:.\-/\  \ \\::  _  \ \\:\ \ \ \    
#     \::\ \  \:.\ \  \ \\. \  \  \ \\::(_)  \ \\:\_\ \ \   
#      \__\/   \__\/\__\/ \__\/ \__\/ \_______\/ \_____\/   
#                                                           
#             GPL Version 3.2.4 Revision 941                
#                http://www.yambo-code.org                  
#
# EELS @ Q(1)  [q->0 direction]:0.1000E-4  0.000     0.000   
#
#
# - Energies      are Teter Parametrization(93) (xc)
# - Wavefunctions are Teter Parametrization(93) (xc)
#
# - The Green`s function is resonant -
# - Using Shifted Grids -
# - [r,Vnl] *is* included -
#
#   BSK|Identifier              :1144
#      |Dimension               :199
#      |Bands                   :1 - 200
#      |Exchange           [res]: yes
#      |Correlation        [res]: no
#      |Kernel`s coupling       : no
#      |Exchange           [cpl]: no
#      |W interaction is bare   : no
#      |Correlation        [cpl]: no
#      |ALDA kernel in R-space  : yes
#      |RL vectors    [exchange]:9045
#      |E/h energy range    [ev]:-1.000000 - -1.000000
#      |Coupling range     [o/o]: 100.0000 -  100.0000
#
#  E/ev[1]    eel /Im[2] eel /Re[3] eel0/Im[4] eel0/Re[5]
#
  0.00      0.132E-10  -.989      0.615E-11  -.983    
 0.1502E-1  0.5399E-4  -.9893     0.9863E-4  -.9832   
 0.3003E-1  0.5480E-4  -.9893     0.1002E-3  -.9832   
 0.4505E-1  0.5500E-4  -.9893     0.1007E-3  -.9833   
 0.6006E-1  0.5518E-4  -.9893     0.1011E-3  -.9833   
 0.7508E-1  0.5535E-4  -.9893     0.1015E-3  -.9833   
 0.9009E-1  0.5552E-4  -.9893     0.1019E-3  -.9833   
 0.1051     0.5569E-4  -.9893     0.1023E-3  -.9833   
 0.1201     0.5585E-4  -.9893     0.1027E-3  -.9833   
 0.1351     0.5602E-4  -.9893     0.1031E-3  -.9833   
 0.1502     0.5618E-4  -.9894     0.1035E-3  -.9833   
 0.1652     0.5635E-4  -.9894     0.1039E-3  -.9833   
 0.1802     0.5651E-4  -.9894     0.1043E-3  -.9833   
 0.1952     0.5668E-4  -.9894     0.1047E-3  -.9833   
 0.2102     0.5685E-4  -.9894     0.1051E-3  -.9833   
 0.2252     0.5701E-4  -.9894     0.1055E-3  -.9834   
 0.2402     0.5718E-4  -.9894     0.1059E-3  -.9834   
 0.2553     0.5735E-4  -.9894     0.1063E-3  -.9834   
 0.2703     0.5752E-4  -.9894     0.1067E-3  -.9834   
 0.2853     0.5769E-4  -.9894     0.1071E-3  -.9834   
 0.3003     0.5786E-4  -.9894     0.1075E-3  -.9834   
 0.3153     0.5803E-4  -.9894     0.1079E-3  -.9834   
 0.3303     0.5820E-4  -.9894     0.1084E-3  -.9834   
 0.3453     0.5837E-4  -.9894     0.1088E-3  -.9834   
 0.3604     0.5855E-4  -.9894     0.1092E-3  -.9834   
 0.3754     0.5872E-4  -.9894     0.1096E-3  -.9834   
 0.3904     0.5889E-4  -.9894     0.1101E-3  -.9834   
 0.4054     0.5907E-4  -.9894     0.1105E-3  -.9834   
 0.4204     0.5925E-4  -.9894     0.1109E-3  -.9834   
 0.4354     0.5942E-4  -.9894     0.1114E-3  -.9834   
 0.4505     0.5960E-4  -.9894     0.1118E-3  -.9834   
 0.4655     0.5978E-4  -.9894     0.1122E-3  -.9834   
 0.4805     0.5996E-4  -.9894     0.1127E-3  -.9834   
 0.4955     0.6014E-4  -.9894     0.1131E-3  -.9834   
 0.5105     0.6032E-4  -.9894     0.1136E-3  -.9834   
 0.5255     0.6050E-4  -.9894     0.1140E-3  -.9833   
 0.5405     0.6068E-4  -.9894     0.1145E-3  -.9833   
 0.5556     0.6087E-4  -.9894     0.1149E-3  -.9833   
 0.5706     0.6105E-4  -.9894     0.1154E-3  -.9833   
 0.5856     0.6124E-4  -.9894     0.1159E-3  -.9833   
 0.6006     0.6142E-4  -.9894     0.1163E-3  -.9833   
 0.6156     0.6161E-4  -.9894     0.1168E-3  -.9833   
 0.6306     0.6180E-4  -.9894     0.1173E-3  -.9833   
 0.6456     0.6198E-4  -.9894     0.1177E-3  -.9833   
 0.6607     0.6217E-4  -.9894     0.1182E-3  -.9833   
 0.6757     0.6236E-4  -.9894     0.1187E-3  -.9833   
 0.6907     0.6255E-4  -.9894     0.1192E-3  -.9833   
 0.7057     0.6275E-4  -.9894     0.1197E-3  -.9833   
 0.7207     0.6294E-4  -.9894     0.1201E-3  -.9833   
 0.7357     0.6313E-4  -.9894     0.1206E-3  -.9833   
 0.7508     0.6333E-4  -.9894     0.1211E-3  -.9833   
 0.7658     0.6352E-4  -.9894     0.1216E-3  -.9833   
 0.7808     0.6372E-4  -.9894     0.1221E-3  -.9833   
 0.7958     0.6392E-4  -.9894     0.1226E-3  -.9833   
 0.8108     0.6411E-4  -.9893     0.1231E-3  -.9833   
 0.8258     0.6431E-4  -.9893     0.1236E-3  -.9833   
 0.8408     0.6451E-4  -.9893     0.1242E-3  -.9833   
 0.8559     0.6471E-4  -.9893     0.1247E-3  -.9833   
 0.8709     0.6492E-4  -.9893     0.1252E-3  -.9833   
 0.8859     0.6512E-4  -.9893     0.1257E-3  -.9833   
 0.9009     0.6532E-4  -.9893     0.1262E-3  -.9832   
 0.9159     0.6553E-4  -.9893     0.1268E-3  -.9832   
 0.9309     0.6573E-4  -.9893     0.1273E-3  -.9832   
 0.9459     0.6594E-4  -.9893     0.1278E-3  -.9832   
 0.9610     0.6615E-4  -.9893     0.1284E-3  -.9832   
 0.9760     0.6636E-4  -.9893     0.1289E-3  -.9832   
 0.9910     0.6657E-4  -.9893     0.1294E-3  -.9832   
  1.006     0.6678E-4  -.9893     0.1300E-3  -.9832   
  1.021     0.6699E-4  -.9893     0.1305E-3  -.9832   
  1.036     0.6720E-4  -.9893     0.1311E-3  -.9832   
  1.051     0.6742E-4  -.9893     0.1317E-3  -.9832   
  1.066     0.6763E-4  -.9893     0.1322E-3  -.9832   
  1.081     0.6785E-4  -.9893     0.1328E-3  -.9832   
  1.096     0.6807E-4  -.9893     0.1334E-3  -.9832   
  1.111     0.6828E-4  -.9893     0.1339E-3  -.9832   
  1.126     0.6850E-4  -.9893     0.1345E-3  -.9831   
  1.141     0.6872E-4  -.9893     0.1351E-3  -.9831   
  1.156     0.6894E-4  -.9893     0.1357E-3  -.9831   
  1.171     0.6917E-4  -.9893     0.1363E-3  -.9831   
  1.186     0.6939E-4  -.9893     0.1368E-3  -.9831   
  1.201     0.6962E-4  -.9893     0.1374E-3  -.9831   
  1.216     0.6984E-4  -.9893     0.1380E-3  -.9831   
  1.231     0.7007E-4  -.9893     0.1386E-3  -.9831   
  1.246     0.7030E-4  -.9893     0.1392E-3  -.9831   
  1.261     0.7053E-4  -.9893     0.1399E-3  -.9831   
  1.276     0.7076E-4  -.9893     0.1405E-3  -.9831   
  1.291     0.7099E-4  -.9893     0.1411E-3  -.9830   
  1.306     0.7122E-4  -.9893     0.1417E-3  -.9830   
  1.321     0.7145E-4  -.9893     0.1423E-3  -.9830   
  1.336     0.7169E-4  -.9893     0.1430E-3  -.9830   
  1.351     0.7193E-4  -.9892     0.1436E-3  -.9830   
  1.366     0.7216E-4  -.9892     0.1442E-3  -.9830   
  1.381     0.7240E-4  -.9892     0.1449E-3  -.9830   
  1.396     0.7264E-4  -.9892     0.1455E-3  -.9830   
  1.411     0.7288E-4  -.9892     0.1462E-3  -.9830   
  1.426     0.7313E-4  -.9892     0.1468E-3  -.9830   
  1.441     0.7337E-4  -.9892     0.1475E-3  -.9830   
  1.456     0.7361E-4  -.9892     0.1482E-3  -.9829   
  1.471     0.7386E-4  -.9892     0.1488E-3  -.9829   
  1.486     0.7411E-4  -.9892     0.1495E-3  -.9829   
  1.502     0.7436E-4  -.9892     0.1502E-3  -.9829   
  1.517     0.7461E-4  -.9892     0.1509E-3  -.9829   
  1.532     0.7486E-4  -.9892     0.1516E-3  -.9829   
  1.547     0.7511E-4  -.9892     0.1523E-3  -.9829   
  1.562     0.7536E-4  -.9892     0.1530E-3  -.9829   
  1.577     0.7562E-4  -.9892     0.1537E-3  -.9828   
  1.592     0.7587E-4  -.9892     0.1544E-3  -.9828   
  1.607     0.7613E-4  -.9892     0.1551E-3  -.9828   
  1.622     0.7639E-4  -.9892     0.1558E-3  -.9828   
  1.637     0.7665E-4  -.9892     0.1565E-3  -.9828   
  1.652     0.7691E-4  -.9892     0.1572E-3  -.9828   
  1.667     0.7718E-4  -.9892     0.1580E-3  -.9828   
  1.682     0.7744E-4  -.9892     0.1587E-3  -.9828   
  1.697     0.7771E-4  -.9891     0.1595E-3  -.9827   
  1.712     0.7797E-4  -.9891     0.1602E-3  -.9827   
  1.727     0.7824E-4  -.9891     0.1610E-3  -.9827   
  1.742     0.7851E-4  -.9891     0.1617E-3  -.9827   
  1.757     0.7878E-4  -.9891     0.1625E-3  -.9827   
  1.772     0.7906E-4  -.9891     0.1632E-3  -.9827   
  1.787     0.7933E-4  -.9891     0.1640E-3  -.9827   
  1.802     0.7961E-4  -.9891     0.1648E-3  -.9826   
  1.817     0.7989E-4  -.9891     0.1656E-3  -.9826   
  1.832     0.8017E-4  -.9891     0.1664E-3  -.9826   
  1.847     0.8045E-4  -.9891     0.1672E-3  -.9826   
  1.862     0.8073E-4  -.9891     0.1680E-3  -.9826   
  1.877     0.8101E-4  -.9891     0.1688E-3  -.9826   
  1.892     0.8130E-4  -.9891     0.1696E-3  -.9826   
  1.907     0.8158E-4  -.9891     0.1704E-3  -.9825   
  1.922     0.8187E-4  -.9891     0.1712E-3  -.9825   
  1.937     0.8216E-4  -.9891     0.1721E-3  -.9825   
  1.952     0.8245E-4  -.9891     0.1729E-3  -.9825   
  1.967     0.8274E-4  -.9890     0.1738E-3  -.9825   
  1.982     0.8304E-4  -.9890     0.1746E-3  -.9825   
  1.997     0.8334E-4  -.9890     0.1755E-3  -.9824   
  2.012     0.8363E-4  -.9890     0.1763E-3  -.9824   
  2.027     0.8393E-4  -.9890     0.1772E-3  -.9824   
  2.042     0.8423E-4  -.9890     0.1781E-3  -.9824   
  2.057     0.8454E-4  -.9890     0.1790E-3  -.9824   
  2.072     0.8484E-4  -.9890     0.1799E-3  -.9824   
  2.087     0.8515E-4  -.9890     0.1807E-3  -.9823   
  2.102     0.8546E-4  -.9890     0.1816E-3  -.9823   
  2.117     0.8577E-4  -.9890     0.1826E-3  -.9823   
  2.132     0.8608E-4  -.9890     0.1835E-3  -.9823   
  2.147     0.8639E-4  -.9890     0.1844E-3  -.9823   
  2.162     0.8670E-4  -.9890     0.1853E-3  -.9823   
  2.177     0.8702E-4  -.9890     0.1863E-3  -.9822   
  2.192     0.8734E-4  -.9890     0.1872E-3  -.9822   
  2.207     0.8766E-4  -.9889     0.1882E-3  -.9822   
  2.222     0.8798E-4  -.9889     0.1891E-3  -.9822   
  2.237     0.8831E-4  -.9889     0.1901E-3  -.9822   
  2.252     0.8863E-4  -.9889     0.1911E-3  -.9821   
  2.267     0.8896E-4  -.9889     0.1920E-3  -.9821   
  2.282     0.8929E-4  -.9889     0.1930E-3  -.9821   
  2.297     0.8962E-4  -.9889     0.1940E-3  -.9821   
  2.312     0.8995E-4  -.9889     0.1950E-3  -.9821   
  2.327     0.9029E-4  -.9889     0.1960E-3  -.9820   
  2.342     0.9062E-4  -.9889     0.1971E-3  -.9820   
  2.357     0.9096E-4  -.9889     0.1981E-3  -.9820   
  2.372     0.9130E-4  -.9889     0.1991E-3  -.9820   
  2.387     0.9165E-4  -.9889     0.2002E-3  -.9820   
  2.402     0.9199E-4  -.9888     0.2012E-3  -.9819   
  2.417     0.9234E-4  -.9888     0.2023E-3  -.9819   
  2.432     0.9269E-4  -.9888     0.2033E-3  -.9819   
  2.447     0.9304E-4  -.9888     0.2044E-3  -.9819   
  2.462     0.9339E-4  -.9888     0.2055E-3  -.9819   
  2.477     0.9375E-4  -.9888     0.2066E-3  -.9818   
  2.492     0.9410E-4  -.9888     0.2077E-3  -.9818   
  2.508     0.9446E-4  -.9888     0.2088E-3  -.9818   
  2.523     0.9482E-4  -.9888     0.2099E-3  -.9818   
  2.538     0.9519E-4  -.9888     0.2111E-3  -.9817   
  2.553     0.9555E-4  -.9888     0.2122E-3  -.9817   
  2.568     0.9592E-4  -.9888     0.2133E-3  -.9817   
  2.583     0.9629E-4  -.9887     0.2145E-3  -.9817   
  2.598     0.9666E-4  -.9887     0.2157E-3  -.9817   
  2.613     0.9704E-4  -.9887     0.2168E-3  -.9816   
  2.628     0.9741E-4  -.9887     0.2180E-3  -.9816   
  2.643     0.9779E-4  -.9887     0.2192E-3  -.9816   
  2.658     0.9817E-4  -.9887     0.2204E-3  -.9816   
  2.673     0.9856E-4  -.9887     0.2217E-3  -.9815   
  2.688     0.9894E-4  -.9887     0.2229E-3  -.9815   
  2.703     0.9933E-4  -.9887     0.2241E-3  -.9815   
  2.718     0.9972E-4  -.9887     0.2254E-3  -.9815   
  2.733     0.1001E-3  -.9887     0.2266E-3  -.9814   
  2.748     0.1005E-3  -.9887     0.2279E-3  -.9814   
  2.763     0.1009E-3  -.9886     0.2292E-3  -.9814   
  2.778     0.1013E-3  -.9886     0.2304E-3  -.9814   
  2.793     0.1017E-3  -.9886     0.2317E-3  -.9813   
  2.808     0.1021E-3  -.9886     0.2331E-3  -.9813   
  2.823     0.1025E-3  -.9886     0.2344E-3  -.9813   
  2.838     0.1029E-3  -.9886     0.2357E-3  -.9813   
  2.853     0.1033E-3  -.9886     0.2371E-3  -.9812   
  2.868     0.1038E-3  -.9886     0.2384E-3  -.9812   
  2.883     0.1042E-3  -.9886     0.2398E-3  -.9812   
  2.898     0.1046E-3  -.9886     0.2412E-3  -.9811   
  2.913     0.1050E-3  -.9885     0.2426E-3  -.9811   
  2.928     0.1055E-3  -.9885     0.2440E-3  -.9811   
  2.943     0.1059E-3  -.9885     0.2454E-3  -.9811   
  2.958     0.1063E-3  -.9885     0.2468E-3  -.9810   
  2.973     0.1067E-3  -.9885     0.2482E-3  -.9810   
  2.988     0.1072E-3  -.9885     0.2497E-3  -.9810   
  3.003     0.1076E-3  -.9885     0.2512E-3  -.9809   
  3.018     0.1081E-3  -.9885     0.2526E-3  -.9809   
  3.033     0.1085E-3  -.9885     0.2541E-3  -.9809   
  3.048     0.1090E-3  -.9885     0.2556E-3  -.9809   
  3.063     0.1094E-3  -.9884     0.2572E-3  -.9808   
  3.078     0.1099E-3  -.9884     0.2587E-3  -.9808   
  3.093     0.1103E-3  -.9884     0.2602E-3  -.9808   
  3.108     0.1108E-3  -.9884     0.2618E-3  -.9807   
  3.123     0.1112E-3  -.9884     0.2634E-3  -.9807   
  3.138     0.1117E-3  -.9884     0.2650E-3  -.9807   
  3.153     0.1122E-3  -.9884     0.2666E-3  -.9806   
  3.168     0.1126E-3  -.9884     0.2682E-3  -.9806   
  3.183     0.1131E-3  -.9884     0.2698E-3  -.9806   
  3.198     0.1136E-3  -.9883     0.2715E-3  -.9805   
  3.213     0.1141E-3  -.9883     0.2731E-3  -.9805   
  3.228     0.1146E-3  -.9883     0.2748E-3  -.9805   
  3.243     0.1151E-3  -.9883     0.2765E-3  -.9804   
  3.258     0.1155E-3  -.9883     0.2782E-3  -.9804   
  3.273     0.1160E-3  -.9883     0.2799E-3  -.9804   
  3.288     0.1165E-3  -.9883     0.2817E-3  -.9803   
  3.303     0.1170E-3  -.9883     0.2834E-3  -.9803   
  3.318     0.1175E-3  -.9882     0.2852E-3  -.9803   
  3.333     0.1180E-3  -.9882     0.2870E-3  -.9802   
  3.348     0.1186E-3  -.9882     0.2888E-3  -.9802   
  3.363     0.1191E-3  -.9882     0.2906E-3  -.9802   
  3.378     0.1196E-3  -.9882     0.2925E-3  -.9801   
  3.393     0.1201E-3  -.9882     0.2943E-3  -.9801   
  3.408     0.1206E-3  -.9882     0.2962E-3  -.9800   
  3.423     0.1212E-3  -.9882     0.2981E-3  -.9800   
  3.438     0.1217E-3  -.9881     0.3000E-3  -.9800   
  3.453     0.1222E-3  -.9881     0.3019E-3  -.9799   
  3.468     0.1228E-3  -.9881     0.3039E-3  -.9799   
  3.483     0.1233E-3  -.9881     0.3059E-3  -.9799   
  3.498     0.1239E-3  -.9881     0.3078E-3  -.9798   
  3.514     0.1244E-3  -.9881     0.3099E-3  -.9798   
  3.529     0.1250E-3  -.9881     0.3119E-3  -.9797   
  3.544     0.1255E-3  -.9881     0.3139E-3  -.9797   
  3.559     0.1261E-3  -.9880     0.3160E-3  -.9797   
  3.574     0.1266E-3  -.9880     0.3181E-3  -.9796   
  3.589     0.1272E-3  -.9880     0.3202E-3  -.9796   
  3.604     0.1278E-3  -.9880     0.3223E-3  -.9795   
  3.619     0.1284E-3  -.9880     0.3245E-3  -.9795   
  3.634     0.1289E-3  -.9880     0.3267E-3  -.9795   
  3.649     0.1295E-3  -.9880     0.3289E-3  -.9794   
  3.664     0.1301E-3  -.9879     0.3311E-3  -.9794   
  3.679     0.1307E-3  -.9879     0.3333E-3  -.9793   
  3.694     0.1313E-3  -.9879     0.3356E-3  -.9793   
  3.709     0.1319E-3  -.9879     0.3379E-3  -.9792   
  3.724     0.1325E-3  -.9879     0.3402E-3  -.9792   
  3.739     0.1331E-3  -.9879     0.3425E-3  -.9792   
  3.754     0.1338E-3  -.9879     0.3449E-3  -.9791   
  3.769     0.1344E-3  -.9878     0.3473E-3  -.9791   
  3.784     0.1350E-3  -.9878     0.3497E-3  -.9790   
  3.799     0.1356E-3  -.9878     0.3521E-3  -.9790   
  3.814     0.1363E-3  -.9878     0.3546E-3  -.9789   
  3.829     0.1369E-3  -.9878     0.3571E-3  -.9789   
  3.844     0.1375E-3  -.9878     0.3596E-3  -.9788   
  3.859     0.1382E-3  -.9877     0.3621E-3  -.9788   
  3.874     0.1388E-3  -.9877     0.3647E-3  -.9787   
  3.889     0.1395E-3  -.9877     0.3673E-3  -.9787   
  3.904     0.1402E-3  -.9877     0.3699E-3  -.9786   
  3.919     0.1408E-3  -.9877     0.3725E-3  -.9786   
  3.934     0.1415E-3  -.9877     0.3752E-3  -.9785   
  3.949     0.1422E-3  -.9877     0.3779E-3  -.9785   
  3.964     0.1429E-3  -.9876     0.3806E-3  -.9784   
  3.979     0.1435E-3  -.9876     0.3834E-3  -.9784   
  3.994     0.1442E-3  -.9876     0.3862E-3  -.9783   
  4.009     0.1449E-3  -.9876     0.3890E-3  -.9783   
  4.024     0.1456E-3  -.9876     0.3919E-3  -.9782   
  4.039     0.1464E-3  -.9876     0.3948E-3  -.9782   
  4.054     0.1471E-3  -.9875     0.3977E-3  -.9781   
  4.069     0.1478E-3  -.9875     0.4007E-3  -.9781   
  4.084     0.1485E-3  -.9875     0.4036E-3  -.9780   
  4.099     0.1492E-3  -.9875     0.4067E-3  -.9780   
  4.114     0.1500E-3  -.9875     0.4097E-3  -.9779   
  4.129     0.1507E-3  -.9875     0.4128E-3  -.9779   
  4.144     0.1515E-3  -.9874     0.4159E-3  -.9778   
  4.159     0.1522E-3  -.9874     0.4191E-3  -.9778   
  4.174     0.1530E-3  -.9874     0.4223E-3  -.9777   
  4.189     0.1537E-3  -.9874     0.4255E-3  -.9777   
  4.204     0.1545E-3  -.9874     0.4288E-3  -.9776   
  4.219     0.1553E-3  -.9873     0.4321E-3  -.9775   
  4.234     0.1561E-3  -.9873     0.4355E-3  -.9775   
  4.249     0.1569E-3  -.9873     0.4389E-3  -.9774   
  4.264     0.1577E-3  -.9873     0.4423E-3  -.9774   
  4.279     0.1585E-3  -.9873     0.4457E-3  -.9773   
  4.294     0.1593E-3  -.9873     0.4493E-3  -.9772   
  4.309     0.1601E-3  -.9872     0.4528E-3  -.9772   
  4.324     0.1609E-3  -.9872     0.4564E-3  -.9771   
  4.339     0.1617E-3  -.9872     0.4600E-3  -.9771   
  4.354     0.1626E-3  -.9872     0.4637E-3  -.9770   
  4.369     0.1634E-3  -.9872     0.4674E-3  -.9769   
  4.384     0.1643E-3  -.9871     0.4712E-3  -.9769   
  4.399     0.1651E-3  -.9871     0.4750E-3  -.9768   
  4.414     0.1660E-3  -.9871     0.4789E-3  -.9767   
  4.429     0.1668E-3  -.9871     0.4828E-3  -.9767   
  4.444     0.1677E-3  -.9871     0.4868E-3  -.9766   
  4.459     0.1686E-3  -.9870     0.4908E-3  -.9765   
  4.474     0.1695E-3  -.9870     0.4948E-3  -.9765   
  4.489     0.1704E-3  -.9870     0.4989E-3  -.9764   
  4.505     0.1713E-3  -.9870     0.5031E-3  -.9763   
  4.520     0.1722E-3  -.9870     0.5073E-3  -.9763   
  4.535     0.1731E-3  -.9869     0.5116E-3  -.9762   
  4.550     0.1741E-3  -.9869     0.5159E-3  -.9761   
  4.565     0.1750E-3  -.9869     0.5203E-3  -.9760   
  4.580     0.1759E-3  -.9869     0.5247E-3  -.9760   
  4.595     0.1769E-3  -.9868     0.5292E-3  -.9759   
  4.610     0.1779E-3  -.9868     0.5337E-3  -.9758   
  4.625     0.1788E-3  -.9868     0.5383E-3  -.9758   
  4.640     0.1798E-3  -.9868     0.5430E-3  -.9757   
  4.655     0.1808E-3  -.9868     0.5477E-3  -.9756   
  4.670     0.1818E-3  -.9867     0.5525E-3  -.9755   
  4.685     0.1828E-3  -.9867     0.5574E-3  -.9755   
  4.700     0.1838E-3  -.9867     0.5623E-3  -.9754   
  4.715     0.1848E-3  -.9867     0.5672E-3  -.9753   
  4.730     0.1858E-3  -.9866     0.5723E-3  -.9752   
  4.745     0.1869E-3  -.9866     0.5774E-3  -.9751   
  4.760     0.1879E-3  -.9866     0.5826E-3  -.9751   
  4.775     0.1890E-3  -.9866     0.5879E-3  -.9750   
  4.790     0.1900E-3  -.9866     0.5932E-3  -.9749   
  4.805     0.1911E-3  -.9865     0.5986E-3  -.9748   
  4.820     0.1922E-3  -.9865     0.6040E-3  -.9747   
  4.835     0.1933E-3  -.9865     0.6096E-3  -.9746   
  4.850     0.1944E-3  -.9865     0.6152E-3  -.9746   
  4.865     0.1955E-3  -.9864     0.6209E-3  -.9745   
  4.880     0.1966E-3  -.9864     0.6267E-3  -.9744   
  4.895     0.1978E-3  -.9864     0.6326E-3  -.9743   
  4.910     0.1989E-3  -.9864     0.6385E-3  -.9742   
  4.925     0.2001E-3  -.9863     0.6446E-3  -.9741   
  4.940     0.2012E-3  -.9863     0.6507E-3  -.9740   
  4.955     0.2024E-3  -.9863     0.6569E-3  -.9739   
  4.970     0.2036E-3  -.9863     0.6632E-3  -.9738   
  4.985     0.2048E-3  -.9862     0.6696E-3  -.9737   
  5.000     0.2060E-3  -.9862     0.6761E-3  -.9736   
  5.015     0.2072E-3  -.9862     0.6827E-3  -.9735   
  5.030     0.2085E-3  -.9862     0.6893E-3  -.9735   
