#  __      __   ______   __       __  _______    ______     
# |  \    /  \ /      \ |  \     /  \|       \  /      \    
#  \$$\  /  $$|  $$$$$$\| $$\   /  $$| $$$$$$$\|  $$$$$$\   
#   \$$\/  $$ | $$__| $$| $$$\ /  $$$| $$__/ $$| $$  | $$   
#    \$$  $$  | $$    $$| $$$$\  $$$$| $$    $$| $$  | $$   
#     \$$$$   | $$$$$$$$| $$\$$ $$ $$| $$$$$$$\| $$  | $$   
#     | $$    | $$  | $$| $$ \$$$| $$| $$__/ $$| $$__/ $$   
#     | $$    | $$  | $$| $$  \$ | $$| $$    $$ \$$    $$   
#      \$$     \$$   \$$ \$$      \$$ \$$$$$$$   \$$$$$$    
#                                                           
# GPL Version 4.4.0 Revision 148. (Based on r.16920 h.961a8d
#                  MPI+SLK+OpenMP Build                     
#                http://www.yambo-code.org                  
#
# Absorption @ Q(1) [q->0 direction] : 0.0000000  0.0000000  1.0000000
#
#
# - Energies      are Slater exchange(X)+Perdew & Zunger(C)
# - Wavefunctions are Slater exchange(X)+Perdew & Zunger(C)
#
# - The Green`s function is T-ordered -
# - Using the Length Gauge -
# - [r,Vnl] *is* included -
#
#    E/ev[1]       EPS-Im[2]     EPS-Re[3]     EPSo-Im[4]    EPSo-Re[5]
#
    0.0000       0.10386E-2     1.1391       0.56005E-2     1.3644   
   0.10000E-1    0.10388E-2     1.1391       0.56005E-2     1.3644   
   0.20000E-1    0.10390E-2     1.1391       0.56005E-2     1.3644   
   0.30000E-1    0.10384E-2     1.1391       0.56006E-2     1.3644   
   0.40000E-1    0.10391E-2     1.1391       0.56006E-2     1.3644   
   0.50000E-1    0.10386E-2     1.1391       0.56008E-2     1.3644   
   0.60000E-1    0.10387E-2     1.1391       0.56009E-2     1.3644   
   0.70000E-1    0.10391E-2     1.1391       0.56010E-2     1.3644   
   0.80000E-1    0.10390E-2     1.1391       0.56012E-2     1.3644   
   0.90000E-1    0.10390E-2     1.1391       0.56014E-2     1.3644   
   0.10000       0.10390E-2     1.1391       0.56016E-2     1.3644   
   0.11000       0.10390E-2     1.1391       0.56019E-2     1.3644   
   0.12000       0.10389E-2     1.1391       0.56022E-2     1.3644   
   0.13000       0.10386E-2     1.1391       0.56024E-2     1.3644   
   0.14000       0.10387E-2     1.1391       0.56028E-2     1.3644   
   0.15000       0.10389E-2     1.1391       0.56031E-2     1.3645   
   0.16000       0.10388E-2     1.1391       0.56035E-2     1.3645   
   0.17000       0.10388E-2     1.1391       0.56039E-2     1.3645   
   0.18000       0.10392E-2     1.1391       0.56043E-2     1.3645   
   0.19000       0.10395E-2     1.1391       0.56047E-2     1.3645   
   0.20000       0.10398E-2     1.1391       0.56052E-2     1.3645   
   0.21000       0.10403E-2     1.1391       0.56056E-2     1.3645   
   0.22000       0.10397E-2     1.1391       0.56061E-2     1.3645   
   0.23000       0.10397E-2     1.1391       0.56067E-2     1.3645   
   0.24000       0.10397E-2     1.1391       0.56072E-2     1.3645   
   0.25000       0.10398E-2     1.1391       0.56078E-2     1.3645   
   0.26000       0.10402E-2     1.1391       0.56084E-2     1.3646   
   0.27000       0.10404E-2     1.1391       0.56090E-2     1.3646   
   0.28000       0.10404E-2     1.1391       0.56097E-2     1.3646   
   0.29000       0.10397E-2     1.1391       0.56103E-2     1.3646   
   0.30000       0.10403E-2     1.1391       0.56110E-2     1.3646   
   0.31000       0.10402E-2     1.1391       0.56118E-2     1.3646   
   0.32000       0.10407E-2     1.1391       0.56125E-2     1.3646   
   0.33000       0.10402E-2     1.1391       0.56133E-2     1.3647   
   0.34000       0.10407E-2     1.1391       0.56141E-2     1.3647   
   0.35000       0.10412E-2     1.1391       0.56149E-2     1.3647   
   0.36000       0.10411E-2     1.1391       0.56157E-2     1.3647   
   0.37000       0.10412E-2     1.1391       0.56166E-2     1.3647   
   0.38000       0.10411E-2     1.1391       0.56174E-2     1.3647   
   0.39000       0.10411E-2     1.1391       0.56184E-2     1.3648   
   0.40000       0.10415E-2     1.1391       0.56193E-2     1.3648   
   0.41000       0.10413E-2     1.1392       0.56202E-2     1.3648   
   0.42000       0.10420E-2     1.1392       0.56212E-2     1.3648   
   0.43000       0.10418E-2     1.1392       0.56222E-2     1.3648   
   0.44000       0.10422E-2     1.1392       0.56232E-2     1.3648   
   0.45000       0.10425E-2     1.1392       0.56243E-2     1.3649   
   0.46000       0.10425E-2     1.1392       0.56254E-2     1.3649   
   0.47000       0.10424E-2     1.1392       0.56265E-2     1.3649   
   0.48000       0.10430E-2     1.1392       0.56276E-2     1.3649   
   0.49000       0.10433E-2     1.1392       0.56287E-2     1.3650   
   0.50000       0.10433E-2     1.1392       0.56299E-2     1.3650   
   0.51000       0.10435E-2     1.1392       0.56311E-2     1.3650   
   0.52000       0.10436E-2     1.1392       0.56323E-2     1.3650   
   0.53000       0.10439E-2     1.1392       0.56336E-2     1.3650   
   0.54000       0.10438E-2     1.1392       0.56348E-2     1.3651   
   0.55000       0.10442E-2     1.1392       0.56361E-2     1.3651   
   0.56000       0.10446E-2     1.1392       0.56374E-2     1.3651   
   0.57000       0.10447E-2     1.1392       0.56388E-2     1.3651   
   0.58000       0.10448E-2     1.1392       0.56401E-2     1.3652   
   0.59000       0.10445E-2     1.1392       0.56415E-2     1.3652   
   0.60000       0.10449E-2     1.1392       0.56429E-2     1.3652   
   0.61000       0.10453E-2     1.1392       0.56444E-2     1.3653   
   0.62000       0.10458E-2     1.1393       0.56458E-2     1.3653   
   0.63000       0.10458E-2     1.1393       0.56473E-2     1.3653   
   0.64000       0.10460E-2     1.1393       0.56488E-2     1.3653   
   0.65000       0.10461E-2     1.1393       0.56503E-2     1.3654   
   0.66000       0.10465E-2     1.1393       0.56519E-2     1.3654   
   0.67000       0.10471E-2     1.1393       0.56535E-2     1.3654   
   0.68000       0.10466E-2     1.1393       0.56551E-2     1.3655   
   0.69000       0.10470E-2     1.1393       0.56567E-2     1.3655   
   0.70000       0.10474E-2     1.1393       0.56583E-2     1.3655   
   0.71000       0.10479E-2     1.1393       0.56600E-2     1.3656   
   0.72000       0.10476E-2     1.1393       0.56617E-2     1.3656   
   0.73000       0.10481E-2     1.1393       0.56635E-2     1.3656   
   0.74000       0.10487E-2     1.1393       0.56652E-2     1.3657   
   0.75000       0.10488E-2     1.1393       0.56670E-2     1.3657   
   0.76000       0.10493E-2     1.1393       0.56688E-2     1.3657   
   0.77000       0.10490E-2     1.1393       0.56706E-2     1.3658   
   0.78000       0.10495E-2     1.1394       0.56724E-2     1.3658   
   0.79000       0.10499E-2     1.1394       0.56743E-2     1.3658   
   0.80000       0.10502E-2     1.1394       0.56762E-2     1.3659   
   0.81000       0.10506E-2     1.1394       0.56781E-2     1.3659   
   0.82000       0.10509E-2     1.1394       0.56801E-2     1.3660   
   0.83000       0.10510E-2     1.1394       0.56821E-2     1.3660   
   0.84000       0.10514E-2     1.1394       0.56841E-2     1.3660   
   0.85000       0.10521E-2     1.1394       0.56861E-2     1.3661   
   0.86000       0.10521E-2     1.1394       0.56881E-2     1.3661   
   0.87000       0.10526E-2     1.1394       0.56902E-2     1.3661   
   0.88000       0.10524E-2     1.1394       0.56923E-2     1.3662   
   0.89000       0.10533E-2     1.1394       0.56944E-2     1.3662   
   0.90000       0.10529E-2     1.1394       0.56966E-2     1.3663   
   0.91000       0.10540E-2     1.1395       0.56987E-2     1.3663   
   0.92000       0.10535E-2     1.1395       0.57009E-2     1.3664   
   0.93000       0.10545E-2     1.1395       0.57031E-2     1.3664   
   0.94000       0.10541E-2     1.1395       0.57054E-2     1.3664   
   0.95000       0.10548E-2     1.1395       0.57077E-2     1.3665   
   0.96000       0.10553E-2     1.1395       0.57100E-2     1.3665   
   0.97000       0.10560E-2     1.1395       0.57123E-2     1.3666   
   0.98000       0.10563E-2     1.1395       0.57146E-2     1.3666   
   0.99000       0.10567E-2     1.1395       0.57170E-2     1.3667   
    1.0000       0.10568E-2     1.1395       0.57194E-2     1.3667   
    1.0100       0.10568E-2     1.1395       0.57218E-2     1.3668   
    1.0200       0.10573E-2     1.1396       0.57243E-2     1.3668   
    1.0300       0.10577E-2     1.1396       0.57267E-2     1.3669   
    1.0400       0.10581E-2     1.1396       0.57292E-2     1.3669   
    1.0500       0.10586E-2     1.1396       0.57318E-2     1.3670   
    1.0600       0.10588E-2     1.1396       0.57343E-2     1.3670   
    1.0700       0.10594E-2     1.1396       0.57369E-2     1.3670   
    1.0800       0.10596E-2     1.1396       0.57395E-2     1.3671   
    1.0900       0.10604E-2     1.1396       0.57421E-2     1.3672   
    1.1000       0.10606E-2     1.1396       0.57448E-2     1.3672   
    1.1100       0.10610E-2     1.1396       0.57474E-2     1.3673   
    1.1200       0.10617E-2     1.1396       0.57501E-2     1.3673   
    1.1300       0.10613E-2     1.1397       0.57529E-2     1.3674   
    1.1400       0.10623E-2     1.1397       0.57556E-2     1.3674   
    1.1500       0.10623E-2     1.1397       0.57584E-2     1.3675   
    1.1600       0.10632E-2     1.1397       0.57612E-2     1.3675   
    1.1700       0.10636E-2     1.1397       0.57640E-2     1.3676   
    1.1800       0.10641E-2     1.1397       0.57669E-2     1.3676   
    1.1900       0.10642E-2     1.1397       0.57698E-2     1.3677   
    1.2000       0.10649E-2     1.1397       0.57727E-2     1.3677   
    1.2100       0.10654E-2     1.1397       0.57756E-2     1.3678   
    1.2200       0.10659E-2     1.1398       0.57786E-2     1.3679   
    1.2300       0.10661E-2     1.1398       0.57816E-2     1.3679   
    1.2400       0.10665E-2     1.1398       0.57846E-2     1.3680   
    1.2500       0.10674E-2     1.1398       0.57877E-2     1.3680   
    1.2600       0.10678E-2     1.1398       0.57907E-2     1.3681   
    1.2700       0.10678E-2     1.1398       0.57938E-2     1.3681   
    1.2800       0.10684E-2     1.1398       0.57970E-2     1.3682   
    1.2900       0.10691E-2     1.1398       0.58001E-2     1.3683   
    1.3000       0.10694E-2     1.1399       0.58033E-2     1.3683   
    1.3100       0.10700E-2     1.1399       0.58065E-2     1.3684   
    1.3200       0.10701E-2     1.1399       0.58097E-2     1.3684   
    1.3300       0.10707E-2     1.1399       0.58130E-2     1.3685   
    1.3400       0.10720E-2     1.1399       0.58163E-2     1.3686   
    1.3500       0.10715E-2     1.1399       0.58196E-2     1.3686   
    1.3600       0.10722E-2     1.1399       0.58229E-2     1.3687   
    1.3700       0.10727E-2     1.1399       0.58263E-2     1.3688   
    1.3800       0.10733E-2     1.1399       0.58297E-2     1.3688   
    1.3900       0.10734E-2     1.1400       0.58331E-2     1.3689   
    1.4000       0.10740E-2     1.1400       0.58365E-2     1.3690   
    1.4100       0.10752E-2     1.1400       0.58400E-2     1.3690   
    1.4200       0.10750E-2     1.1400       0.58435E-2     1.3691   
    1.4300       0.10761E-2     1.1400       0.58470E-2     1.3692   
    1.4400       0.10766E-2     1.1400       0.58506E-2     1.3692   
    1.4500       0.10772E-2     1.1400       0.58542E-2     1.3693   
    1.4600       0.10775E-2     1.1401       0.58578E-2     1.3694   
    1.4700       0.10781E-2     1.1401       0.58614E-2     1.3694   
    1.4800       0.10787E-2     1.1401       0.58651E-2     1.3695   
    1.4900       0.10790E-2     1.1401       0.58688E-2     1.3696   
    1.5000       0.10803E-2     1.1401       0.58725E-2     1.3696   
    1.5100       0.10805E-2     1.1401       0.58762E-2     1.3697   
    1.5200       0.10811E-2     1.1401       0.58800E-2     1.3698   
    1.5300       0.10815E-2     1.1402       0.58838E-2     1.3699   
    1.5400       0.10826E-2     1.1402       0.58877E-2     1.3699   
    1.5500       0.10826E-2     1.1402       0.58915E-2     1.3700   
    1.5600       0.10832E-2     1.1402       0.58954E-2     1.3701   
    1.5700       0.10840E-2     1.1402       0.58993E-2     1.3702   
    1.5800       0.10845E-2     1.1402       0.59033E-2     1.3702   
    1.5900       0.10846E-2     1.1402       0.59072E-2     1.3703   
    1.6000       0.10858E-2     1.1403       0.59112E-2     1.3704   
    1.6100       0.10863E-2     1.1403       0.59153E-2     1.3705   
    1.6200       0.10868E-2     1.1403       0.59193E-2     1.3705   
    1.6300       0.10875E-2     1.1403       0.59234E-2     1.3706   
    1.6400       0.10880E-2     1.1403       0.59275E-2     1.3707   
    1.6500       0.10887E-2     1.1403       0.59317E-2     1.3708   
    1.6600       0.10897E-2     1.1403       0.59359E-2     1.3709   
    1.6700       0.10897E-2     1.1404       0.59401E-2     1.3709   
    1.6800       0.10904E-2     1.1404       0.59443E-2     1.3710   
    1.6900       0.10909E-2     1.1404       0.59486E-2     1.3711   
    1.7000       0.10918E-2     1.1404       0.59529E-2     1.3712   
    1.7100       0.10926E-2     1.1404       0.59572E-2     1.3713   
    1.7200       0.10930E-2     1.1404       0.59615E-2     1.3713   
    1.7300       0.10935E-2     1.1405       0.59659E-2     1.3714   
    1.7400       0.10945E-2     1.1405       0.59703E-2     1.3715   
    1.7500       0.10948E-2     1.1405       0.59748E-2     1.3716   
    1.7600       0.10955E-2     1.1405       0.59792E-2     1.3717   
    1.7700       0.10966E-2     1.1405       0.59837E-2     1.3718   
    1.7800       0.10974E-2     1.1405       0.59882E-2     1.3718   
    1.7900       0.10979E-2     1.1406       0.59928E-2     1.3719   
    1.8000       0.10982E-2     1.1406       0.59974E-2     1.3720   
    1.8100       0.10992E-2     1.1406       0.60020E-2     1.3721   
    1.8200       0.11000E-2     1.1406       0.60067E-2     1.3722   
    1.8300       0.11005E-2     1.1406       0.60113E-2     1.3723   
    1.8400       0.11015E-2     1.1406       0.60160E-2     1.3724   
    1.8500       0.11017E-2     1.1407       0.60208E-2     1.3725   
    1.8600       0.11024E-2     1.1407       0.60255E-2     1.3725   
    1.8700       0.11030E-2     1.1407       0.60303E-2     1.3726   
    1.8800       0.11039E-2     1.1407       0.60352E-2     1.3727   
    1.8900       0.11053E-2     1.1407       0.60400E-2     1.3728   
    1.9000       0.11057E-2     1.1407       0.60449E-2     1.3729   
    1.9100       0.11062E-2     1.1408       0.60498E-2     1.3730   
    1.9200       0.11068E-2     1.1408       0.60548E-2     1.3731   
    1.9300       0.11079E-2     1.1408       0.60598E-2     1.3732   
    1.9400       0.11082E-2     1.1408       0.60648E-2     1.3733   
    1.9500       0.11094E-2     1.1408       0.60698E-2     1.3734   
    1.9600       0.11100E-2     1.1409       0.60749E-2     1.3735   
    1.9700       0.11109E-2     1.1409       0.60800E-2     1.3736   
    1.9800       0.11120E-2     1.1409       0.60852E-2     1.3737   
    1.9900       0.11125E-2     1.1409       0.60903E-2     1.3738   
    2.0000       0.11131E-2     1.1409       0.60955E-2     1.3739   
    2.0100       0.11142E-2     1.1409       0.61008E-2     1.3740   
    2.0200       0.11147E-2     1.1410       0.61060E-2     1.3740   
    2.0300       0.11156E-2     1.1410       0.61113E-2     1.3741   
    2.0400       0.11162E-2     1.1410       0.61167E-2     1.3742   
    2.0500       0.11171E-2     1.1410       0.61220E-2     1.3743   
    2.0600       0.11175E-2     1.1410       0.61274E-2     1.3744   
    2.0700       0.11188E-2     1.1411       0.61328E-2     1.3745   
    2.0800       0.11196E-2     1.1411       0.61383E-2     1.3747   
    2.0900       0.11205E-2     1.1411       0.61438E-2     1.3748   
    2.1000       0.11211E-2     1.1411       0.61493E-2     1.3749   
    2.1100       0.11220E-2     1.1411       0.61549E-2     1.3750   
    2.1200       0.11222E-2     1.1412       0.61605E-2     1.3751   
    2.1300       0.11235E-2     1.1412       0.61661E-2     1.3752   
    2.1400       0.11248E-2     1.1412       0.61717E-2     1.3753   
    2.1500       0.11254E-2     1.1412       0.61774E-2     1.3754   
    2.1600       0.11257E-2     1.1412       0.61831E-2     1.3755   
    2.1700       0.11273E-2     1.1413       0.61889E-2     1.3756   
    2.1800       0.11278E-2     1.1413       0.61947E-2     1.3757   
    2.1900       0.11288E-2     1.1413       0.62005E-2     1.3758   
    2.2000       0.11292E-2     1.1413       0.62064E-2     1.3759   
    2.2100       0.11305E-2     1.1414       0.62123E-2     1.3760   
    2.2200       0.11315E-2     1.1414       0.62182E-2     1.3761   
    2.2300       0.11322E-2     1.1414       0.62241E-2     1.3762   
    2.2400       0.11329E-2     1.1414       0.62301E-2     1.3764   
    2.2500       0.11339E-2     1.1414       0.62361E-2     1.3765   
    2.2600       0.11348E-2     1.1415       0.62422E-2     1.3766   
    2.2700       0.11353E-2     1.1415       0.62483E-2     1.3767   
    2.2800       0.11369E-2     1.1415       0.62544E-2     1.3768   
    2.2900       0.11374E-2     1.1415       0.62606E-2     1.3769   
    2.3000       0.11384E-2     1.1415       0.62668E-2     1.3770   
    2.3100       0.11393E-2     1.1416       0.62730E-2     1.3771   
    2.3200       0.11402E-2     1.1416       0.62793E-2     1.3773   
    2.3300       0.11411E-2     1.1416       0.62856E-2     1.3774   
    2.3400       0.11418E-2     1.1416       0.62919E-2     1.3775   
    2.3500       0.11430E-2     1.1417       0.62983E-2     1.3776   
    2.3600       0.11435E-2     1.1417       0.63047E-2     1.3777   
    2.3700       0.11452E-2     1.1417       0.63111E-2     1.3778   
    2.3800       0.11459E-2     1.1417       0.63176E-2     1.3780   
    2.3900       0.11469E-2     1.1417       0.63241E-2     1.3781   
    2.4000       0.11475E-2     1.1418       0.63307E-2     1.3782   
    2.4100       0.11486E-2     1.1418       0.63373E-2     1.3783   
    2.4200       0.11498E-2     1.1418       0.63439E-2     1.3784   
    2.4300       0.11510E-2     1.1418       0.63506E-2     1.3786   
    2.4400       0.11516E-2     1.1419       0.63572E-2     1.3787   
    2.4500       0.11529E-2     1.1419       0.63640E-2     1.3788   
    2.4600       0.11539E-2     1.1419       0.63707E-2     1.3789   
    2.4700       0.11548E-2     1.1419       0.63775E-2     1.3791   
    2.4800       0.11555E-2     1.1420       0.63844E-2     1.3792   
    2.4900       0.11569E-2     1.1420       0.63913E-2     1.3793   
    2.5000       0.11576E-2     1.1420       0.63982E-2     1.3794   
    2.5100       0.11585E-2     1.1420       0.64051E-2     1.3796   
    2.5200       0.11598E-2     1.1421       0.64121E-2     1.3797   
    2.5300       0.11606E-2     1.1421       0.64191E-2     1.3798   
    2.5400       0.11617E-2     1.1421       0.64262E-2     1.3799   
    2.5500       0.11630E-2     1.1421       0.64333E-2     1.3801   
    2.5600       0.11637E-2     1.1422       0.64405E-2     1.3802   
    2.5700       0.11647E-2     1.1422       0.64476E-2     1.3803   
    2.5800       0.11658E-2     1.1422       0.64549E-2     1.3805   
    2.5900       0.11671E-2     1.1422       0.64621E-2     1.3806   
    2.6000       0.11680E-2     1.1423       0.64694E-2     1.3807   
    2.6100       0.11693E-2     1.1423       0.64767E-2     1.3809   
    2.6200       0.11700E-2     1.1423       0.64841E-2     1.3810   
    2.6300       0.11713E-2     1.1423       0.64915E-2     1.3811   
    2.6400       0.11724E-2     1.1424       0.64990E-2     1.3813   
    2.6500       0.11737E-2     1.1424       0.65064E-2     1.3814   
    2.6600       0.11746E-2     1.1424       0.65140E-2     1.3815   
    2.6700       0.11756E-2     1.1424       0.65215E-2     1.3817   
    2.6800       0.11771E-2     1.1425       0.65291E-2     1.3818   
