#                                                           
# ooooo   oooo ..     ooo        ooo ooooooooo.    .oooo.   
#  `88.   .8" .88.    `88.       .88 `88"   `Y8b  dP"  `Yb  
#   `88. .8" .8"88.    888b     d"88  88     888 88      88 
#    `88.8" .8" `88.   8 Y88. .P  88  88oooo888" 88      88 
#     `88" .88ooo888.  8  `888"   88  88    `88b 88      88 
#      88 .8"     `88. 8    Y     88  88    .88P `8b    d8" 
#     o88o88o      888o8          88 o88bood8P"   `Ybod8P"  
#                                                           
#              GPL Version 3.1.2 Revision 297               
#                 http://www.yambo-code.org                 
#
# Polarization (-<<X>>) [volume] @ IQ 1 :0.1000E-4  0.000     0.000
#
# - The gauge is transverse + [r,Vnl] -
#
# BSK|Identifier              :1803
#    |Dimension               :199
#    |Bands                   :1 - 200
#    |Exchange           [res]: yes
#    |Correlation        [res]: no
#    |Kernel`s coupling       : no
#    |Exchange           [cpl]: no
#    |Correlation        [cpl]: no
#    |ALDA kernel in R-space  : no
#    |RL vectors    [exchange]:9045
#    |E/h energy range    [ev]:-1.000000 - -1.000000
#    |Coupling range     [o/o]: 100.0000 -  100.0000
#
#  E/ev[1]    alpha/Im   alpha/Re   alphao/Im  alphao/Re
#
   0.00000    0.01965    4.05528    0.03427    5.41420
   0.02002    0.01969    4.05928    0.03435    5.42117
   0.04004    0.01973    4.06328    0.03444    5.42798
   0.06006    0.01977    4.06713    0.03453    5.43495
   0.08008    0.01981    4.07114    0.03462    5.44177
   0.10010    0.01985    4.07514    0.03471    5.44874
   0.12012    0.01989    4.07914    0.03480    5.45570
   0.14014    0.01993    4.08314    0.03488    5.46267
   0.16016    0.01997    4.08700    0.03497    5.46964
   0.18018    0.02001    4.09100    0.03506    5.47675
   0.20020    0.02005    4.09515    0.03515    5.48372
   0.22022    0.02009    4.09915    0.03525    5.49083
   0.24024    0.02013    4.10315    0.03534    5.49780
   0.26026    0.02017    4.10716    0.03543    5.50491
   0.28028    0.02021    4.11116    0.03552    5.51203
   0.30030    0.02025    4.11531    0.03561    5.51914
   0.32032    0.02029    4.11931    0.03570    5.52626
   0.34034    0.02033    4.12331    0.03580    5.53337
   0.36036    0.02037    4.12746    0.03589    5.54064
   0.38038    0.02042    4.13146    0.03598    5.54775
   0.40040    0.02046    4.13561    0.03608    5.55501
   0.42042    0.02050    4.13976    0.03617    5.56228
   0.44044    0.02054    4.14377    0.03627    5.56954
   0.46046    0.02058    4.14792    0.03636    5.57680
   0.48048    0.02062    4.15207    0.03646    5.58406
   0.50050    0.02067    4.15622    0.03655    5.59133
   0.52052    0.02071    4.16037    0.03665    5.59874
   0.54054    0.02075    4.16452    0.03674    5.60600
   0.56056    0.02079    4.16867    0.03684    5.61341
   0.58058    0.02084    4.17282    0.03694    5.62082
   0.60060    0.02088    4.17697    0.03704    5.62824
   0.62062    0.02092    4.18112    0.03713    5.63565
   0.64064    0.02096    4.18542    0.03723    5.64306
   0.66066    0.02101    4.18957    0.03733    5.65047
   0.68068    0.02105    4.19372    0.03743    5.65803
   0.70070    0.02109    4.19802    0.03753    5.66559
   0.72072    0.02114    4.20217    0.03763    5.67300
   0.74074    0.02118    4.20647    0.03773    5.68056
   0.76076    0.02123    4.21076    0.03783    5.68812
   0.78078    0.02127    4.21491    0.03793    5.69568
   0.80080    0.02131    4.21921    0.03803    5.70339
   0.82082    0.02136    4.22351    0.03814    5.71095
   0.84084    0.02140    4.22781    0.03824    5.71865
   0.86086    0.02145    4.23211    0.03834    5.72621
   0.88088    0.02149    4.23641    0.03844    5.73392
   0.90090    0.02154    4.24071    0.03855    5.74163
   0.92092    0.02158    4.24500    0.03865    5.74934
   0.94094    0.02163    4.24930    0.03876    5.75719
   0.96096    0.02167    4.25360    0.03886    5.76490
   0.98098    0.02172    4.25805    0.03897    5.77275
   1.00100    0.02176    4.26235    0.03907    5.78046
   1.02102    0.02181    4.26664    0.03918    5.78832
   1.04104    0.02185    4.27109    0.03929    5.79617
   1.06106    0.02190    4.27539    0.03939    5.80403
   1.08108    0.02195    4.27984    0.03950    5.81189
   1.10110    0.02199    4.28428    0.03961    5.81989
   1.12112    0.02204    4.28858    0.03972    5.82775
   1.14114    0.02208    4.29303    0.03983    5.83575
   1.16116    0.02213    4.29748    0.03993    5.84375
   1.18118    0.02218    4.30192    0.04004    5.85176
   1.20120    0.02223    4.30637    0.04015    5.85976
   1.22122    0.02227    4.31082    0.04027    5.86792
   1.24124    0.02232    4.31526    0.04038    5.87592
   1.26126    0.02237    4.31971    0.04049    5.88407
   1.28128    0.02242    4.32430    0.04060    5.89208
   1.30130    0.02246    4.32875    0.04071    5.90023
   1.32132    0.02251    4.33320    0.04083    5.90838
   1.34134    0.02256    4.33779    0.04094    5.91668
   1.36136    0.02261    4.34224    0.04105    5.92483
   1.38138    0.02266    4.34683    0.04117    5.93299
   1.40140    0.02270    4.35128    0.04128    5.94129
   1.42142    0.02275    4.35588    0.04140    5.94959
   1.44144    0.02280    4.36047    0.04151    5.95789
   1.46146    0.02285    4.36507    0.04163    5.96619
   1.48148    0.02290    4.36966    0.04175    5.97449
   1.50150    0.02295    4.37426    0.04186    5.98294
   1.52152    0.02300    4.37885    0.04198    5.99124
   1.54154    0.02305    4.38345    0.04210    5.99969
   1.56156    0.02310    4.38804    0.04222    6.00814
   1.58158    0.02315    4.39264    0.04234    6.01658
   1.60160    0.02320    4.39723    0.04246    6.02503
   1.62162    0.02325    4.40197    0.04258    6.03363
   1.64164    0.02330    4.40657    0.04270    6.04208
   1.66166    0.02335    4.41131    0.04282    6.05068
   1.68168    0.02340    4.41591    0.04294    6.05927
   1.70170    0.02345    4.42065    0.04307    6.06787
   1.72172    0.02350    4.42539    0.04319    6.07647
   1.74174    0.02356    4.42999    0.04331    6.08521
   1.76176    0.02361    4.43473    0.04344    6.09381
   1.78178    0.02366    4.43947    0.04356    6.10255
   1.80180    0.02371    4.44422    0.04369    6.11130
   1.82182    0.02376    4.44896    0.04381    6.12005
   1.84184    0.02381    4.45370    0.04394    6.12879
   1.86186    0.02387    4.45845    0.04406    6.13768
   1.88188    0.02392    4.46334    0.04419    6.14643
   1.90190    0.02397    4.46808    0.04432    6.15532
   1.92192    0.02403    4.47283    0.04445    6.16422
   1.94194    0.02408    4.47772    0.04458    6.17311
   1.96196    0.02413    4.48261    0.04471    6.18215
   1.98198    0.02419    4.48735    0.04484    6.19104
   2.00200    0.02424    4.49224    0.04497    6.20009
   2.02202    0.02429    4.49713    0.04510    6.20898
   2.04204    0.02435    4.50188    0.04523    6.21802
   2.06206    0.02440    4.50677    0.04536    6.22721
   2.08208    0.02446    4.51166    0.04550    6.23625
   2.10210    0.02451    4.51655    0.04563    6.24544
   2.12212    0.02457    4.52159    0.04576    6.25448
   2.14214    0.02462    4.52648    0.04590    6.26367
   2.16216    0.02468    4.53137    0.04603    6.27286
   2.18218    0.02473    4.53627    0.04617    6.28205
   2.20220    0.02479    4.54131    0.04631    6.29139
   2.22222    0.02484    4.54620    0.04644    6.30073
   2.24224    0.02490    4.55124    0.04658    6.30992
   2.26226    0.02495    4.55628    0.04672    6.31926
   2.28228    0.02501    4.56117    0.04686    6.32875
   2.30230    0.02507    4.56621    0.04700    6.33808
   2.32232    0.02512    4.57125    0.04714    6.34757
   2.34234    0.02518    4.57629    0.04728    6.35691
   2.36236    0.02524    4.58133    0.04742    6.36639
   2.38238    0.02530    4.58637    0.04756    6.37588
   2.40240    0.02535    4.59140    0.04770    6.38552
   2.42242    0.02541    4.59659    0.04785    6.39500
   2.44244    0.02547    4.60163    0.04799    6.40464
   2.46246    0.02553    4.60682    0.04814    6.41427
   2.48248    0.02559    4.61186    0.04828    6.42391
   2.50250    0.02564    4.61705    0.04843    6.43354
   2.52252    0.02570    4.62209    0.04858    6.44332
   2.54254    0.02576    4.62727    0.04872    6.45296
   2.56256    0.02582    4.63246    0.04887    6.46274
   2.58258    0.02588    4.63765    0.04902    6.47252
   2.60260    0.02594    4.64284    0.04917    6.48245
   2.62262    0.02600    4.64803    0.04932    6.49224
   2.64264    0.02606    4.65321    0.04947    6.50217
   2.66266    0.02612    4.65840    0.04962    6.51210
   2.68268    0.02618    4.66374    0.04977    6.52203
   2.70270    0.02624    4.66893    0.04993    6.53196
   2.72272    0.02630    4.67411    0.05008    6.54204
   2.74274    0.02636    4.67945    0.05023    6.55212
   2.76276    0.02642    4.68479    0.05039    6.56220
   2.78278    0.02649    4.68997    0.05054    6.57228
   2.80280    0.02655    4.69531    0.05070    6.58236
   2.82282    0.02661    4.70065    0.05086    6.59259
   2.84284    0.02667    4.70598    0.05102    6.60266
   2.86286    0.02673    4.71132    0.05117    6.61289
   2.88288    0.02680    4.71665    0.05133    6.62327
   2.90290    0.02686    4.72214    0.05149    6.63349
   2.92292    0.02692    4.72748    0.05166    6.64387
   2.94294    0.02699    4.73281    0.05182    6.65425
   2.96296    0.02705    4.73830    0.05198    6.66462
   2.98298    0.02711    4.74363    0.05214    6.67500
   3.00300    0.02718    4.74912    0.05231    6.68537
   3.02302    0.02724    4.75460    0.05247    6.69590
   3.04304    0.02731    4.76008    0.05264    6.70642
   3.06306    0.02737    4.76557    0.05280    6.71695
   3.08308    0.02744    4.77105    0.05297    6.72762
   3.10310    0.02750    4.77654    0.05314    6.73814
   3.12312    0.02757    4.78202    0.05331    6.74881
   3.14314    0.02763    4.78751    0.05348    6.75949
   3.16316    0.02770    4.79299    0.05365    6.77031
   3.18318    0.02777    4.79862    0.05382    6.78098
   3.20320    0.02783    4.80411    0.05399    6.79180
   3.22322    0.02790    4.80974    0.05416    6.80262
   3.24324    0.02797    4.81537    0.05434    6.81344
   3.26326    0.02803    4.82100    0.05451    6.82441
   3.28328    0.02810    4.82664    0.05469    6.83538
   3.30330    0.02817    4.83227    0.05486    6.84635
   3.32332    0.02824    4.83790    0.05504    6.85731
   3.34334    0.02830    4.84353    0.05522    6.86828
   3.36336    0.02837    4.84917    0.05540    6.87940
   3.38338    0.02844    4.85480    0.05557    6.89052
   3.40340    0.02851    4.86058    0.05576    6.90163
   3.42342    0.02858    4.86621    0.05594    6.91290
   3.44344    0.02865    4.87199    0.05612    6.92402
   3.46346    0.02872    4.87777    0.05630    6.93528
   3.48348    0.02879    4.88356    0.05649    6.94655
   3.50350    0.02886    4.88934    0.05667    6.95796
   3.52352    0.02893    4.89512    0.05686    6.96922
   3.54354    0.02900    4.90090    0.05704    6.98064
   3.56356    0.02907    4.90668    0.05723    6.99205
   3.58358    0.02914    4.91246    0.05742    7.00361
   3.60360    0.02921    4.91839    0.05761    7.01503
   3.62362    0.02929    4.92417    0.05780    7.02659
   3.64364    0.02936    4.93010    0.05799    7.03830
   3.66366    0.02943    4.93588    0.05818    7.04986
   3.68368    0.02950    4.94181    0.05838    7.06157
   3.70370    0.02958    4.94774    0.05857    7.07328
   3.72372    0.02965    4.95367    0.05877    7.08499
   3.74374    0.02972    4.95959    0.05896    7.09670
   3.76376    0.02980    4.96552    0.05916    7.10855
   3.78378    0.02987    4.97160    0.05936    7.12041
   3.80380    0.02994    4.97753    0.05956    7.13242
   3.82382    0.03002    4.98361    0.05976    7.14428
   3.84384    0.03009    4.98954    0.05996    7.15628
   3.86386    0.03017    4.99561    0.06016    7.16829
   3.88388    0.03024    5.00169    0.06036    7.18030
   3.90390    0.03032    5.00777    0.06057    7.19245
   3.92392    0.03040    5.01384    0.06077    7.20460
   3.94394    0.03047    5.01992    0.06098    7.21676
   3.96396    0.03055    5.02600    0.06119    7.22906
   3.98398    0.03063    5.03208    0.06140    7.24122
   4.00400    0.03070    5.03830    0.06161    7.25367
   4.02402    0.03078    5.04438    0.06182    7.26597
   4.04404    0.03086    5.05060    0.06203    7.27842
   4.06406    0.03094    5.05668    0.06224    7.29072
   4.08408    0.03102    5.06291    0.06246    7.30332
   4.10410    0.03109    5.06913    0.06267    7.31577
   4.12412    0.03117    5.07536    0.06289    7.32837
   4.14414    0.03125    5.08158    0.06311    7.34097
   4.16416    0.03133    5.08796    0.06332    7.35357
   4.18418    0.03141    5.09418    0.06354    7.36632
   4.20420    0.03149    5.10056    0.06376    7.37906
   4.22422    0.03157    5.10678    0.06399    7.39181
   4.24424    0.03165    5.11316    0.06421    7.40471
   4.26426    0.03174    5.11953    0.06443    7.41760
   4.28428    0.03182    5.12590    0.06466    7.43050
   4.30430    0.03190    5.13228    0.06489    7.44339
   4.32432    0.03198    5.13865    0.06511    7.45644
   4.34434    0.03206    5.14502    0.06534    7.46948
   4.36436    0.03215    5.15140    0.06557    7.48267
   4.38438    0.03223    5.15792    0.06580    7.49572
   4.40440    0.03231    5.16429    0.06604    7.50891
   4.42442    0.03240    5.17081    0.06627    7.52225
   4.44444    0.03248    5.17734    0.06651    7.53544
   4.46446    0.03257    5.18386    0.06674    7.54878
   4.48448    0.03265    5.19038    0.06698    7.56227
   4.50450    0.03274    5.19690    0.06722    7.57561
   4.52452    0.03282    5.20342    0.06746    7.58910
   4.54454    0.03291    5.21009    0.06770    7.60259
   4.56456    0.03300    5.21662    0.06794    7.61622
   4.58458    0.03308    5.22329    0.06819    7.62986
   4.60460    0.03317    5.22996    0.06843    7.64350
   4.62462    0.03326    5.23648    0.06868    7.65728
   4.64464    0.03334    5.24315    0.06893    7.67107
   4.66466    0.03343    5.24982    0.06918    7.68485
   4.68468    0.03352    5.25664    0.06943    7.69864
   4.70470    0.03361    5.26331    0.06968    7.71257
   4.72472    0.03370    5.26998    0.06993    7.72665
   4.74474    0.03379    5.27680    0.07019    7.74058
   4.76476    0.03388    5.28361    0.07045    7.75467
   4.78478    0.03397    5.29043    0.07070    7.76890
   4.80480    0.03406    5.29710    0.07096    7.78298
   4.82482    0.03415    5.30407    0.07122    7.79721
   4.84484    0.03424    5.31089    0.07149    7.81158
   4.86486    0.03433    5.31771    0.07175    7.82581
   4.88488    0.03443    5.32452    0.07201    7.84019
   4.90490    0.03452    5.33149    0.07228    7.85472
   4.92492    0.03461    5.33846    0.07255    7.86924
   4.94494    0.03471    5.34542    0.07282    7.88377
   4.96496    0.03480    5.35224    0.07309    7.89830
   4.98498    0.03489    5.35936    0.07336    7.91297
   5.00500    0.03499    5.36632    0.07364    7.92764
   5.02502    0.03508    5.37329    0.07391    7.94247
   5.04504    0.03518    5.38026    0.07419    7.95729
   5.06506    0.03527    5.38737    0.07447    7.97211
   5.08508    0.03537    5.39449    0.07475    7.98708
   5.10510    0.03547    5.40160    0.07503    8.00205
   5.12512    0.03556    5.40872    0.07531    8.01717
   5.14514    0.03566    5.41583    0.07560    8.03229
   5.16516    0.03576    5.42294    0.07589    8.04741
   5.18518    0.03586    5.43006    0.07617    8.06268
   5.20520    0.03596    5.43732    0.07646    8.07794
   5.22522    0.03605    5.44444    0.07676    8.09321
   5.24524    0.03615    5.45170    0.07705    8.10863
   5.26527    0.03625    5.45896    0.07734    8.12404
   5.28528    0.03635    5.46623    0.07764    8.13960
   5.30531    0.03645    5.47349    0.07794    8.15517
   5.32533    0.03656    5.48075    0.07824    8.17073
   5.34535    0.03666    5.48816    0.07854    8.18644
   5.36537    0.03676    5.49543    0.07885    8.20216
   5.38539    0.03686    5.50284    0.07915    8.21802
   5.40541    0.03696    5.51025    0.07946    8.23388
   5.42543    0.03707    5.51766    0.07977    8.24988
   5.44545    0.03717    5.52507    0.08008    8.26589
   5.46547    0.03728    5.53248    0.08039    8.28190
   5.48549    0.03738    5.54004    0.08071    8.29806
   5.50551    0.03749    5.54745    0.08102    8.31421
   5.52553    0.03759    5.55501    0.08134    8.33052
   5.54555    0.03770    5.56257    0.08166    8.34682
   5.56557    0.03780    5.57013    0.08198    8.36313
   5.58559    0.03791    5.57769    0.08231    8.37958
   5.60561    0.03802    5.58525    0.08263    8.39603
   5.62563    0.03813    5.59296    0.08296    8.41263
   5.64565    0.03824    5.60052    0.08329    8.42938
   5.66567    0.03834    5.60823    0.08362    8.44598
   5.68569    0.03845    5.61593    0.08396    8.46273
   5.70571    0.03856    5.62364    0.08429    8.47963
   5.72573    0.03867    5.63135    0.08463    8.49653
   5.74575    0.03878    5.63906    0.08497    8.51358
   5.76577    0.03890    5.64691    0.08531    8.53047
   5.78579    0.03901    5.65462    0.08565    8.54767
   5.80581    0.03912    5.66248    0.08600    8.56486
   5.82583    0.03923    5.67033    0.08635    8.58206
   5.84585    0.03935    5.67819    0.08670    8.59940
   5.86587    0.03946    5.68604    0.08705    8.61674
   5.88589    0.03958    5.69405    0.08741    8.63423
   5.90591    0.03969    5.70190    0.08776    8.65172
   5.92593    0.03981    5.70991    0.08812    8.66936
   5.94595    0.03992    5.71791    0.08848    8.68700
   5.96597    0.04004    5.72592    0.08885    8.70479
   5.98599    0.04015    5.73392    0.08921    8.72257
   6.00601    0.04027    5.74192    0.08958    8.74051
   6.02603    0.04039    5.75008    0.08995    8.75844
   6.04605    0.04051    5.75808    0.09032    8.77653
   6.06607    0.04063    5.76623    0.09070    8.79461
   6.08609    0.04075    5.77439    0.09108    8.81284
   6.10611    0.04087    5.78254    0.09145    8.83107
   6.12613    0.04099    5.79069    0.09184    8.84945
   6.14615    0.04111    5.79899    0.09222    8.86783
   6.16617    0.04123    5.80714    0.09261    8.88636
   6.18619    0.04135    5.81544    0.09300    8.90489
   6.20621    0.04148    5.82374    0.09339    8.92356
   6.22623    0.04160    5.83204    0.09378    8.94239
   6.24625    0.04173    5.84049    0.09418    8.96107
   6.26627    0.04185    5.84879    0.09458    8.98004
   6.28629    0.04198    5.85724    0.09498    8.99901
   6.30631    0.04210    5.86554    0.09538    9.01798
   6.32633    0.04223    5.87399    0.09579    9.03710
   6.34635    0.04236    5.88244    0.09620    9.05637
   6.36637    0.04248    5.89104    0.09661    9.07564
   6.38639    0.04261    5.89949    0.09703    9.09506
   6.40641    0.04274    5.90808    0.09745    9.11448
   6.42643    0.04287    5.91668    0.09787    9.13404
   6.44645    0.04300    5.92528    0.09829    9.15376
   6.46647    0.04313    5.93388    0.09872    9.17347
   6.48649    0.04326    5.94247    0.09914    9.19319
   6.50651    0.04339    5.95122    0.09957    9.21305
   6.52653    0.04353    5.95981    0.10001    9.23306
   6.54655    0.04366    5.96856    0.10045    9.25322
   6.56657    0.04379    5.97730    0.10089    9.27323
   6.58659    0.04393    5.98605    0.10133    9.29353
   6.60661    0.04406    5.99494    0.10177    9.31384
   6.62663    0.04420    6.00369    0.10222    9.33430
   6.64665    0.04434    6.01258    0.10267    9.35475
   6.66667    0.04447    6.02148    0.10313    9.37535
   6.68669    0.04461    6.03037    0.10359    9.39610
   6.70671    0.04475    6.03941    0.10405    9.41686
   6.72673    0.04489    6.04830    0.10451    9.43776
   6.74675    0.04503    6.05735    0.10498    9.45866
   6.76677    0.04517    6.06639    0.10545    9.47970
