#                                                           
# ooooo   oooo ..     ooo        ooo ooooooooo.    .oooo.   
#  `88.   .8" .88.    `88.       .88 `88"   `Y8b  dP"  `Yb  
#   `88. .8" .8"88.    888b     d"88  88     888 88      88 
#    `88.8" .8" `88.   8 Y88. .P  88  88oooo888" 88      88 
#     `88" .88ooo888.  8  `888"   88  88    `88b 88      88 
#      88 .8"     `88. 8    Y     88  88    .88P `8b    d8" 
#     o88o88o      888o8          88 o88bood8P"   `Ybod8P"  
#                                                           
#              GPL Version 3.2.4 Revision 941               
#                 http://www.yambo-code.org                 
#
# EELS @ Q(1)  [q->0 direction]:0.1000E-4  0.000     0.000   
#
#
# - Energies      are Teter Parametrization(93) (xc)+Scissor
# - Wavefunctions are Teter Parametrization(93) (xc)
#
# - The Green`s function is resonant -
# - Using Shifted Grids -
# - [r,Vnl] *is* included -
#
#   BSK|Identifier              :9938
#      |Dimension               :199
#      |Bands                   :1 - 200
#      |Exchange           [res]: yes
#      |Correlation        [res]: no
#      |Kernel`s coupling       : no
#      |Exchange           [cpl]: no
#      |W interaction is bare   : no
#      |Correlation        [cpl]: no
#      |ALDA kernel in R-space  : no
#      |RL vectors    [exchange]:9045
#      |E/h energy range    [ev]:-1.000000 - -1.000000
#      |Coupling range     [o/o]: 100.0000 -  100.0000
#
#  E/ev[1]    eel /Im[2] eel /Re[3] eel0/Im[4] eel0/Re[5]
#
  0.00      0.669E-11  -.997      -.247E-10  -.991    
 0.2002E-1  0.1556E-4  -.9968     0.2686E-4  -.9914   
 0.4004E-1  0.1574E-4  -.9968     0.2718E-4  -.9914   
 0.6006E-1  0.1578E-4  -.9968     0.2727E-4  -.9915   
 0.8008E-1  0.1582E-4  -.9968     0.2735E-4  -.9915   
 0.1001     0.1585E-4  -.9968     0.2742E-4  -.9915   
 0.1201     0.1589E-4  -.9968     0.2750E-4  -.9915   
 0.1401     0.1592E-4  -.9968     0.2757E-4  -.9915   
 0.1602     0.1595E-4  -.9968     0.2764E-4  -.9915   
 0.1802     0.1599E-4  -.9968     0.2771E-4  -.9915   
 0.2002     0.1602E-4  -.9968     0.2779E-4  -.9915   
 0.2202     0.1605E-4  -.9968     0.2786E-4  -.9915   
 0.2402     0.1608E-4  -.9968     0.2793E-4  -.9915   
 0.2603     0.1612E-4  -.9968     0.2800E-4  -.9915   
 0.2803     0.1615E-4  -.9968     0.2808E-4  -.9915   
 0.3003     0.1618E-4  -.9968     0.2815E-4  -.9915   
 0.3203     0.1621E-4  -.9969     0.2822E-4  -.9915   
 0.3403     0.1625E-4  -.9969     0.2830E-4  -.9915   
 0.3604     0.1628E-4  -.9969     0.2837E-4  -.9915   
 0.3804     0.1631E-4  -.9969     0.2845E-4  -.9915   
 0.4004     0.1635E-4  -.9969     0.2852E-4  -.9915   
 0.4204     0.1638E-4  -.9969     0.2860E-4  -.9915   
 0.4404     0.1641E-4  -.9969     0.2867E-4  -.9915   
 0.4605     0.1645E-4  -.9969     0.2875E-4  -.9915   
 0.4805     0.1648E-4  -.9969     0.2882E-4  -.9915   
 0.5005     0.1652E-4  -.9969     0.2890E-4  -.9915   
 0.5205     0.1655E-4  -.9969     0.2897E-4  -.9915   
 0.5405     0.1658E-4  -.9969     0.2905E-4  -.9915   
 0.5606     0.1662E-4  -.9969     0.2913E-4  -.9915   
 0.5806     0.1665E-4  -.9969     0.2920E-4  -.9915   
 0.6006     0.1669E-4  -.9969     0.2928E-4  -.9915   
 0.6206     0.1672E-4  -.9969     0.2936E-4  -.9915   
 0.6406     0.1675E-4  -.9969     0.2944E-4  -.9915   
 0.6607     0.1679E-4  -.9969     0.2952E-4  -.9915   
 0.6807     0.1682E-4  -.9969     0.2959E-4  -.9915   
 0.7007     0.1686E-4  -.9969     0.2967E-4  -.9915   
 0.7207     0.1689E-4  -.9969     0.2975E-4  -.9915   
 0.7407     0.1693E-4  -.9969     0.2983E-4  -.9915   
 0.7608     0.1696E-4  -.9969     0.2991E-4  -.9915   
 0.7808     0.1700E-4  -.9969     0.2999E-4  -.9915   
 0.8008     0.1703E-4  -.9969     0.3007E-4  -.9915   
 0.8208     0.1707E-4  -.9969     0.3015E-4  -.9915   
 0.8408     0.1710E-4  -.9969     0.3024E-4  -.9915   
 0.8609     0.1714E-4  -.9969     0.3032E-4  -.9915   
 0.8809     0.1718E-4  -.9969     0.3040E-4  -.9915   
 0.9009     0.1721E-4  -.9969     0.3048E-4  -.9915   
 0.9209     0.1725E-4  -.9969     0.3056E-4  -.9915   
 0.9409     0.1728E-4  -.9969     0.3065E-4  -.9915   
 0.9610     0.1732E-4  -.9969     0.3073E-4  -.9915   
 0.9810     0.1736E-4  -.9969     0.3081E-4  -.9915   
  1.001     0.1739E-4  -.9969     0.3090E-4  -.9915   
  1.021     0.1743E-4  -.9969     0.3098E-4  -.9915   
  1.041     0.1747E-4  -.9969     0.3106E-4  -.9915   
  1.061     0.1750E-4  -.9969     0.3115E-4  -.9915   
  1.081     0.1754E-4  -.9969     0.3123E-4  -.9915   
  1.101     0.1758E-4  -.9969     0.3132E-4  -.9915   
  1.121     0.1761E-4  -.9969     0.3141E-4  -.9915   
  1.141     0.1765E-4  -.9969     0.3149E-4  -.9915   
  1.161     0.1769E-4  -.9969     0.3158E-4  -.9915   
  1.181     0.1773E-4  -.9969     0.3167E-4  -.9915   
  1.201     0.1776E-4  -.9969     0.3175E-4  -.9915   
  1.221     0.1780E-4  -.9968     0.3184E-4  -.9915   
  1.241     0.1784E-4  -.9969     0.3193E-4  -.9914   
  1.261     0.1788E-4  -.9968     0.3202E-4  -.9915   
  1.281     0.1792E-4  -.9968     0.3210E-4  -.9914   
  1.301     0.1795E-4  -.9968     0.3219E-4  -.9914   
  1.321     0.1799E-4  -.9968     0.3228E-4  -.9914   
  1.341     0.1803E-4  -.9968     0.3237E-4  -.9914   
  1.361     0.1807E-4  -.9968     0.3246E-4  -.9914   
  1.381     0.1811E-4  -.9968     0.3255E-4  -.9914   
  1.401     0.1815E-4  -.9968     0.3264E-4  -.9914   
  1.421     0.1819E-4  -.9968     0.3274E-4  -.9914   
  1.441     0.1823E-4  -.9968     0.3283E-4  -.9914   
  1.461     0.1826E-4  -.9968     0.3292E-4  -.9914   
  1.481     0.1830E-4  -.9968     0.3301E-4  -.9914   
  1.502     0.1834E-4  -.9968     0.3310E-4  -.9914   
  1.522     0.1838E-4  -.9968     0.3320E-4  -.9914   
  1.542     0.1842E-4  -.9968     0.3329E-4  -.9914   
  1.562     0.1846E-4  -.9968     0.3339E-4  -.9914   
  1.582     0.1850E-4  -.9968     0.3348E-4  -.9914   
  1.602     0.1854E-4  -.9968     0.3357E-4  -.9914   
  1.622     0.1858E-4  -.9968     0.3367E-4  -.9914   
  1.642     0.1862E-4  -.9968     0.3376E-4  -.9914   
  1.662     0.1866E-4  -.9968     0.3386E-4  -.9914   
  1.682     0.1870E-4  -.9968     0.3396E-4  -.9914   
  1.702     0.1875E-4  -.9968     0.3405E-4  -.9914   
  1.722     0.1879E-4  -.9968     0.3415E-4  -.9914   
  1.742     0.1883E-4  -.9968     0.3425E-4  -.9914   
  1.762     0.1887E-4  -.9968     0.3435E-4  -.9914   
  1.782     0.1891E-4  -.9968     0.3445E-4  -.9914   
  1.802     0.1895E-4  -.9968     0.3454E-4  -.9914   
  1.822     0.1899E-4  -.9968     0.3464E-4  -.9914   
  1.842     0.1904E-4  -.9968     0.3474E-4  -.9914   
  1.862     0.1908E-4  -.9968     0.3484E-4  -.9914   
  1.882     0.1912E-4  -.9968     0.3494E-4  -.9914   
  1.902     0.1916E-4  -.9968     0.3505E-4  -.9914   
  1.922     0.1920E-4  -.9968     0.3515E-4  -.9914   
  1.942     0.1925E-4  -.9968     0.3525E-4  -.9914   
  1.962     0.1929E-4  -.9968     0.3535E-4  -.9914   
  1.982     0.1933E-4  -.9968     0.3545E-4  -.9914   
  2.002     0.1937E-4  -.9968     0.3556E-4  -.9914   
  2.022     0.1942E-4  -.9968     0.3566E-4  -.9914   
  2.042     0.1946E-4  -.9968     0.3577E-4  -.9914   
  2.062     0.1950E-4  -.9968     0.3587E-4  -.9914   
  2.082     0.1955E-4  -.9968     0.3598E-4  -.9914   
  2.102     0.1959E-4  -.9968     0.3608E-4  -.9914   
  2.122     0.1964E-4  -.9968     0.3619E-4  -.9914   
  2.142     0.1968E-4  -.9968     0.3629E-4  -.9914   
  2.162     0.1972E-4  -.9968     0.3640E-4  -.9913   
  2.182     0.1977E-4  -.9968     0.3651E-4  -.9913   
  2.202     0.1981E-4  -.9968     0.3661E-4  -.9913   
  2.222     0.1986E-4  -.9968     0.3672E-4  -.9913   
  2.242     0.1990E-4  -.9968     0.3683E-4  -.9913   
  2.262     0.1995E-4  -.9968     0.3694E-4  -.9913   
  2.282     0.1999E-4  -.9968     0.3705E-4  -.9913   
  2.302     0.2004E-4  -.9968     0.3716E-4  -.9913   
  2.322     0.2008E-4  -.9968     0.3727E-4  -.9913   
  2.342     0.2013E-4  -.9968     0.3738E-4  -.9913   
  2.362     0.2017E-4  -.9968     0.3750E-4  -.9913   
  2.382     0.2022E-4  -.9968     0.3761E-4  -.9913   
  2.402     0.2027E-4  -.9968     0.3772E-4  -.9913   
  2.422     0.2031E-4  -.9968     0.3783E-4  -.9913   
  2.442     0.2036E-4  -.9968     0.3795E-4  -.9913   
  2.462     0.2040E-4  -.9968     0.3806E-4  -.9913   
  2.482     0.2045E-4  -.9968     0.3818E-4  -.9913   
  2.503     0.2050E-4  -.9968     0.3829E-4  -.9913   
  2.523     0.2054E-4  -.9968     0.3841E-4  -.9913   
  2.543     0.2059E-4  -.9968     0.3852E-4  -.9913   
  2.563     0.2064E-4  -.9968     0.3864E-4  -.9913   
  2.583     0.2069E-4  -.9968     0.3876E-4  -.9913   
  2.603     0.2073E-4  -.9968     0.3888E-4  -.9913   
  2.623     0.2078E-4  -.9968     0.3899E-4  -.9913   
  2.643     0.2083E-4  -.9968     0.3911E-4  -.9913   
  2.663     0.2088E-4  -.9968     0.3923E-4  -.9913   
  2.683     0.2093E-4  -.9968     0.3935E-4  -.9913   
  2.703     0.2098E-4  -.9968     0.3947E-4  -.9913   
  2.723     0.2102E-4  -.9968     0.3960E-4  -.9913   
  2.743     0.2107E-4  -.9968     0.3972E-4  -.9913   
  2.763     0.2112E-4  -.9968     0.3984E-4  -.9912   
  2.783     0.2117E-4  -.9968     0.3996E-4  -.9912   
  2.803     0.2122E-4  -.9968     0.4009E-4  -.9912   
  2.823     0.2127E-4  -.9968     0.4021E-4  -.9912   
  2.843     0.2132E-4  -.9968     0.4033E-4  -.9912   
  2.863     0.2137E-4  -.9968     0.4046E-4  -.9912   
  2.883     0.2142E-4  -.9968     0.4059E-4  -.9912   
  2.903     0.2147E-4  -.9968     0.4071E-4  -.9912   
  2.923     0.2152E-4  -.9968     0.4084E-4  -.9912   
  2.943     0.2157E-4  -.9968     0.4097E-4  -.9912   
  2.963     0.2162E-4  -.9968     0.4109E-4  -.9912   
  2.983     0.2167E-4  -.9968     0.4122E-4  -.9912   
  3.003     0.2172E-4  -.9968     0.4135E-4  -.9912   
  3.023     0.2178E-4  -.9968     0.4148E-4  -.9912   
  3.043     0.2183E-4  -.9968     0.4161E-4  -.9912   
  3.063     0.2188E-4  -.9968     0.4174E-4  -.9912   
  3.083     0.2193E-4  -.9968     0.4188E-4  -.9912   
  3.103     0.2198E-4  -.9968     0.4201E-4  -.9912   
  3.123     0.2203E-4  -.9968     0.4214E-4  -.9912   
  3.143     0.2209E-4  -.9968     0.4227E-4  -.9912   
  3.163     0.2214E-4  -.9968     0.4241E-4  -.9912   
  3.183     0.2219E-4  -.9968     0.4254E-4  -.9912   
  3.203     0.2225E-4  -.9968     0.4268E-4  -.9912   
  3.223     0.2230E-4  -.9968     0.4282E-4  -.9911   
  3.243     0.2235E-4  -.9968     0.4295E-4  -.9911   
  3.263     0.2241E-4  -.9968     0.4309E-4  -.9911   
  3.283     0.2246E-4  -.9968     0.4323E-4  -.9911   
  3.303     0.2251E-4  -.9968     0.4337E-4  -.9911   
  3.323     0.2257E-4  -.9968     0.4351E-4  -.9911   
  3.343     0.2262E-4  -.9968     0.4365E-4  -.9911   
  3.363     0.2268E-4  -.9968     0.4379E-4  -.9911   
  3.383     0.2273E-4  -.9968     0.4393E-4  -.9911   
  3.403     0.2279E-4  -.9968     0.4407E-4  -.9911   
  3.423     0.2284E-4  -.9968     0.4422E-4  -.9911   
  3.443     0.2290E-4  -.9968     0.4436E-4  -.9911   
  3.463     0.2295E-4  -.9968     0.4450E-4  -.9911   
  3.483     0.2301E-4  -.9968     0.4465E-4  -.9911   
  3.504     0.2307E-4  -.9968     0.4479E-4  -.9911   
  3.524     0.2312E-4  -.9968     0.4494E-4  -.9911   
  3.544     0.2318E-4  -.9968     0.4509E-4  -.9911   
  3.564     0.2324E-4  -.9968     0.4524E-4  -.9911   
  3.584     0.2329E-4  -.9967     0.4538E-4  -.9911   
  3.604     0.2335E-4  -.9967     0.4553E-4  -.9911   
  3.624     0.2341E-4  -.9967     0.4568E-4  -.9910   
  3.644     0.2346E-4  -.9967     0.4584E-4  -.9910   
  3.664     0.2352E-4  -.9967     0.4599E-4  -.9910   
  3.684     0.2358E-4  -.9967     0.4614E-4  -.9910   
  3.704     0.2364E-4  -.9967     0.4629E-4  -.9910   
  3.724     0.2370E-4  -.9967     0.4645E-4  -.9910   
  3.744     0.2376E-4  -.9967     0.4660E-4  -.9910   
  3.764     0.2382E-4  -.9967     0.4676E-4  -.9910   
  3.784     0.2387E-4  -.9967     0.4691E-4  -.9910   
  3.804     0.2393E-4  -.9967     0.4707E-4  -.9910   
  3.824     0.2399E-4  -.9967     0.4723E-4  -.9910   
  3.844     0.2405E-4  -.9967     0.4739E-4  -.9910   
  3.864     0.2411E-4  -.9967     0.4755E-4  -.9910   
  3.884     0.2417E-4  -.9967     0.4771E-4  -.9910   
  3.904     0.2423E-4  -.9967     0.4787E-4  -.9910   
  3.924     0.2429E-4  -.9967     0.4803E-4  -.9910   
  3.944     0.2436E-4  -.9967     0.4819E-4  -.9910   
  3.964     0.2442E-4  -.9967     0.4836E-4  -.9909   
  3.984     0.2448E-4  -.9967     0.4852E-4  -.9909   
  4.004     0.2454E-4  -.9967     0.4868E-4  -.9909   
  4.024     0.2460E-4  -.9967     0.4885E-4  -.9909   
  4.044     0.2466E-4  -.9967     0.4902E-4  -.9909   
  4.064     0.2473E-4  -.9967     0.4919E-4  -.9909   
  4.084     0.2479E-4  -.9967     0.4935E-4  -.9909   
  4.104     0.2485E-4  -.9967     0.4952E-4  -.9909   
  4.124     0.2492E-4  -.9967     0.4969E-4  -.9909   
  4.144     0.2498E-4  -.9967     0.4986E-4  -.9909   
  4.164     0.2504E-4  -.9967     0.5004E-4  -.9909   
  4.184     0.2511E-4  -.9967     0.5021E-4  -.9909   
  4.204     0.2517E-4  -.9967     0.5038E-4  -.9909   
  4.224     0.2523E-4  -.9967     0.5056E-4  -.9909   
  4.244     0.2530E-4  -.9967     0.5073E-4  -.9909   
  4.264     0.2536E-4  -.9967     0.5091E-4  -.9909   
  4.284     0.2543E-4  -.9967     0.5109E-4  -.9908   
  4.304     0.2550E-4  -.9967     0.5127E-4  -.9908   
  4.324     0.2556E-4  -.9967     0.5145E-4  -.9908   
  4.344     0.2563E-4  -.9967     0.5163E-4  -.9908   
  4.364     0.2569E-4  -.9967     0.5181E-4  -.9908   
  4.384     0.2576E-4  -.9967     0.5199E-4  -.9908   
  4.404     0.2583E-4  -.9967     0.5217E-4  -.9908   
  4.424     0.2589E-4  -.9967     0.5236E-4  -.9908   
  4.444     0.2596E-4  -.9967     0.5254E-4  -.9908   
  4.464     0.2603E-4  -.9967     0.5273E-4  -.9908   
  4.484     0.2610E-4  -.9967     0.5292E-4  -.9908   
  4.505     0.2616E-4  -.9967     0.5310E-4  -.9908   
  4.525     0.2623E-4  -.9967     0.5329E-4  -.9908   
  4.545     0.2630E-4  -.9967     0.5348E-4  -.9908   
  4.565     0.2637E-4  -.9967     0.5367E-4  -.9907   
  4.585     0.2644E-4  -.9967     0.5387E-4  -.9907   
  4.605     0.2651E-4  -.9967     0.5406E-4  -.9907   
  4.625     0.2658E-4  -.9967     0.5425E-4  -.9907   
  4.645     0.2665E-4  -.9967     0.5445E-4  -.9907   
  4.665     0.2672E-4  -.9967     0.5465E-4  -.9907   
  4.685     0.2679E-4  -.9967     0.5484E-4  -.9907   
  4.705     0.2686E-4  -.9967     0.5504E-4  -.9907   
  4.725     0.2693E-4  -.9967     0.5524E-4  -.9907   
  4.745     0.2700E-4  -.9966     0.5544E-4  -.9907   
  4.765     0.2708E-4  -.9966     0.5564E-4  -.9907   
  4.785     0.2715E-4  -.9966     0.5585E-4  -.9907   
  4.805     0.2722E-4  -.9966     0.5605E-4  -.9907   
  4.825     0.2729E-4  -.9966     0.5626E-4  -.9906   
  4.845     0.2737E-4  -.9966     0.5646E-4  -.9906   
  4.865     0.2744E-4  -.9966     0.5667E-4  -.9906   
  4.885     0.2751E-4  -.9966     0.5688E-4  -.9906   
  4.905     0.2759E-4  -.9966     0.5709E-4  -.9906   
  4.925     0.2766E-4  -.9966     0.5730E-4  -.9906   
  4.945     0.2773E-4  -.9966     0.5751E-4  -.9906   
  4.965     0.2781E-4  -.9966     0.5772E-4  -.9906   
  4.985     0.2788E-4  -.9966     0.5794E-4  -.9906   
  5.005     0.2796E-4  -.9966     0.5815E-4  -.9906   
  5.025     0.2804E-4  -.9966     0.5837E-4  -.9906   
  5.045     0.2811E-4  -.9966     0.5859E-4  -.9906   
  5.065     0.2819E-4  -.9966     0.5881E-4  -.9905   
  5.085     0.2827E-4  -.9966     0.5903E-4  -.9905   
  5.105     0.2834E-4  -.9966     0.5925E-4  -.9905   
  5.125     0.2842E-4  -.9966     0.5947E-4  -.9905   
  5.145     0.2850E-4  -.9966     0.5970E-4  -.9905   
  5.165     0.2858E-4  -.9966     0.5992E-4  -.9905   
  5.185     0.2865E-4  -.9966     0.6015E-4  -.9905   
  5.205     0.2873E-4  -.9966     0.6038E-4  -.9905   
  5.225     0.2881E-4  -.9966     0.6061E-4  -.9905   
  5.245     0.2889E-4  -.9966     0.6084E-4  -.9905   
  5.265     0.2897E-4  -.9966     0.6107E-4  -.9905   
  5.285     0.2905E-4  -.9966     0.6130E-4  -.9904   
  5.305     0.2913E-4  -.9966     0.6154E-4  -.9904   
  5.325     0.2921E-4  -.9966     0.6177E-4  -.9904   
  5.345     0.2929E-4  -.9966     0.6201E-4  -.9904   
  5.365     0.2937E-4  -.9966     0.6225E-4  -.9904   
  5.385     0.2946E-4  -.9966     0.6249E-4  -.9904   
  5.405     0.2954E-4  -.9966     0.6273E-4  -.9904   
  5.425     0.2962E-4  -.9966     0.6297E-4  -.9904   
  5.445     0.2970E-4  -.9966     0.6322E-4  -.9904   
  5.465     0.2979E-4  -.9966     0.6346E-4  -.9904   
  5.485     0.2987E-4  -.9966     0.6371E-4  -.9904   
  5.506     0.2995E-4  -.9966     0.6396E-4  -.9903   
  5.526     0.3004E-4  -.9966     0.6421E-4  -.9903   
  5.546     0.3012E-4  -.9966     0.6446E-4  -.9903   
  5.566     0.3021E-4  -.9966     0.6471E-4  -.9903   
  5.586     0.3029E-4  -.9966     0.6497E-4  -.9903   
  5.606     0.3038E-4  -.9966     0.6522E-4  -.9903   
  5.626     0.3047E-4  -.9965     0.6548E-4  -.9903   
  5.646     0.3055E-4  -.9965     0.6574E-4  -.9903   
  5.666     0.3064E-4  -.9965     0.6600E-4  -.9903   
  5.686     0.3073E-4  -.9965     0.6626E-4  -.9903   
  5.706     0.3081E-4  -.9965     0.6653E-4  -.9902   
  5.726     0.3090E-4  -.9965     0.6679E-4  -.9902   
  5.746     0.3099E-4  -.9965     0.6706E-4  -.9902   
  5.766     0.3108E-4  -.9965     0.6733E-4  -.9902   
  5.786     0.3117E-4  -.9965     0.6760E-4  -.9902   
  5.806     0.3126E-4  -.9965     0.6787E-4  -.9902   
  5.826     0.3135E-4  -.9965     0.6814E-4  -.9902   
  5.846     0.3144E-4  -.9965     0.6842E-4  -.9902   
  5.866     0.3153E-4  -.9965     0.6869E-4  -.9902   
  5.886     0.3162E-4  -.9965     0.6897E-4  -.9902   
  5.906     0.3171E-4  -.9965     0.6925E-4  -.9901   
  5.926     0.3181E-4  -.9965     0.6954E-4  -.9901   
  5.946     0.3190E-4  -.9965     0.6982E-4  -.9901   
  5.966     0.3199E-4  -.9965     0.7010E-4  -.9901   
  5.986     0.3208E-4  -.9965     0.7039E-4  -.9901   
  6.006     0.3218E-4  -.9965     0.7068E-4  -.9901   
  6.026     0.3227E-4  -.9965     0.7097E-4  -.9901   
  6.046     0.3237E-4  -.9965     0.7126E-4  -.9901   
  6.066     0.3246E-4  -.9965     0.7156E-4  -.9901   
  6.086     0.3256E-4  -.9965     0.7185E-4  -.9900   
  6.106     0.3265E-4  -.9965     0.7215E-4  -.9900   
  6.126     0.3275E-4  -.9965     0.7245E-4  -.9900   
  6.146     0.3285E-4  -.9965     0.7275E-4  -.9900   
  6.166     0.3294E-4  -.9965     0.7306E-4  -.9900   
  6.186     0.3304E-4  -.9965     0.7336E-4  -.9900   
  6.206     0.3314E-4  -.9965     0.7367E-4  -.9900   
  6.226     0.3324E-4  -.9965     0.7398E-4  -.9900   
  6.246     0.3334E-4  -.9965     0.7429E-4  -.9900   
  6.266     0.3344E-4  -.9965     0.7460E-4  -.9899   
  6.286     0.3354E-4  -.9965     0.7492E-4  -.9899   
  6.306     0.3364E-4  -.9965     0.7523E-4  -.9899   
  6.326     0.3374E-4  -.9965     0.7555E-4  -.9899   
  6.346     0.3384E-4  -.9964     0.7588E-4  -.9899   
  6.366     0.3394E-4  -.9964     0.7620E-4  -.9899   
  6.386     0.3404E-4  -.9964     0.7652E-4  -.9899   
  6.406     0.3415E-4  -.9964     0.7685E-4  -.9898   
  6.426     0.3425E-4  -.9964     0.7718E-4  -.9898   
  6.446     0.3435E-4  -.9964     0.7751E-4  -.9898   
  6.466     0.3446E-4  -.9964     0.7785E-4  -.9898   
  6.486     0.3456E-4  -.9964     0.7818E-4  -.9898   
  6.507     0.3467E-4  -.9964     0.7852E-4  -.9898   
  6.527     0.3477E-4  -.9964     0.7886E-4  -.9898   
  6.547     0.3488E-4  -.9964     0.7920E-4  -.9898   
  6.567     0.3499E-4  -.9964     0.7955E-4  -.9897   
  6.587     0.3509E-4  -.9964     0.7990E-4  -.9897   
  6.607     0.3520E-4  -.9964     0.8025E-4  -.9897   
  6.627     0.3531E-4  -.9964     0.8060E-4  -.9897   
  6.647     0.3542E-4  -.9964     0.8095E-4  -.9897   
  6.667     0.3553E-4  -.9964     0.8131E-4  -.9897   
  6.687     0.3564E-4  -.9964     0.8166E-4  -.9897   
