#                                                           
#  **    **    **     ****     ****  ******     *******     
# //**  **    ****   /**/**   **/** /*////**   **/////**    
#  //****    **//**  /**//** ** /** /*   /**  **     //**   
#   //**    **  //** /** //***  /** /******  /**      /**   
#    /**   **********/**  //*   /** /*//// **/**      /**   
#    /**  /**//////**/**   /    /** /*    /**//**     **    
#    /**  /**     /**/**        /** /*******  //*******     
#    //   //      // //         //  ///////    ///////      
#                                                           
#             GPL Version 3.1.2 Revision 297                
#                http://www.yambo-code.org                  
#
# Polarization (-<<X>>) [volume] @ IQ 1 :0.1000E-4  0.000     0.000
#
# - The gauge is transverse + [r,Vnl] -
#
# BSK|Identifier              :7834
#    |Dimension               :199
#    |Bands                   :1 - 200
#    |Exchange           [res]: yes
#    |Correlation        [res]: no
#    |Kernel`s coupling       : no
#    |Exchange           [cpl]: no
#    |Correlation        [cpl]: no
#    |ALDA kernel in R-space  : yes
#    |RL vectors    [exchange]:9045
#    |E/h energy range    [ev]:-1.000000 - -1.000000
#    |Coupling range     [o/o]: 100.0000 -  100.0000
#
#  E/ev[1]    alpha/Im   alpha/Re   alphao/Im  alphao/Re
#
   0.00000    0.06938    7.56583    0.12822   10.44835
   0.01502    0.06958    7.57620    0.12870   10.46762
   0.03003    0.06978    7.58673    0.12918   10.48689
   0.04505    0.06997    7.59725    0.12966   10.50646
   0.06006    0.07017    7.60778    0.13014   10.52587
   0.07508    0.07038    7.61830    0.13063   10.54544
   0.09009    0.07058    7.62882    0.13112   10.56515
   0.10511    0.07078    7.63950    0.13161   10.58487
   0.12012    0.07098    7.65017    0.13211   10.60458
   0.13514    0.07119    7.66084    0.13260   10.62444
   0.15015    0.07139    7.67151    0.13310   10.64445
   0.16517    0.07160    7.68218    0.13361   10.66446
   0.18018    0.07181    7.69300    0.13411   10.68447
   0.19520    0.07202    7.70382    0.13462   10.70463
   0.21021    0.07223    7.71464    0.13514   10.72494
   0.22523    0.07244    7.72547    0.13565   10.74524
   0.24024    0.07265    7.73629    0.13617   10.76570
   0.25526    0.07286    7.74725    0.13669   10.78615
   0.27027    0.07307    7.75822    0.13722   10.80676
   0.28529    0.07329    7.76919    0.13774   10.82736
   0.30030    0.07350    7.78016    0.13827   10.84811
   0.31532    0.07372    7.79128    0.13881   10.86886
   0.33033    0.07393    7.80239    0.13934   10.88976
   0.34535    0.07415    7.81351    0.13988   10.91066
   0.36036    0.07437    7.82463    0.14043   10.93171
   0.37538    0.07459    7.83574    0.14097   10.95291
   0.39039    0.07481    7.84701    0.14152   10.97410
   0.40541    0.07503    7.85827    0.14207   10.99530
   0.42042    0.07526    7.86954    0.14263   11.01664
   0.43544    0.07548    7.88081    0.14319   11.03814
   0.45045    0.07570    7.89222    0.14375   11.05963
   0.46547    0.07593    7.90363    0.14432   11.08127
   0.48048    0.07616    7.91504    0.14489   11.10306
   0.49550    0.07639    7.92646    0.14546   11.12485
   0.51051    0.07662    7.93787    0.14603   11.14664
   0.52553    0.07685    7.94943    0.14661   11.16857
   0.54054    0.07708    7.96099    0.14720   11.19066
   0.55556    0.07731    7.97256    0.14778   11.21275
   0.57057    0.07754    7.98427    0.14837   11.23498
   0.58559    0.07778    7.99583    0.14897   11.25736
   0.60060    0.07801    8.00754    0.14956   11.27974
   0.61562    0.07825    8.01925    0.15016   11.30227
   0.63063    0.07849    8.03111    0.15077   11.32480
   0.64565    0.07873    8.04281    0.15137   11.34748
   0.66066    0.07897    8.05467    0.15199   11.37031
   0.67568    0.07921    8.06653    0.15260   11.39314
   0.69069    0.07945    8.07854    0.15322   11.41611
   0.70571    0.07969    8.09039    0.15384   11.43908
   0.72072    0.07994    8.10240    0.15447   11.46221
   0.73574    0.08018    8.11441    0.15510   11.48548
   0.75075    0.08043    8.12641    0.15573   11.50890
   0.76577    0.08068    8.13857    0.15637   11.53232
   0.78078    0.08093    8.15072    0.15701   11.55574
   0.79580    0.08118    8.16288    0.15766   11.57945
   0.81081    0.08143    8.17503    0.15831   11.60317
   0.82583    0.08168    8.18733    0.15896   11.62688
   0.84084    0.08194    8.19964    0.15962   11.65075
   0.85586    0.08219    8.21194    0.16029   11.67476
   0.87087    0.08245    8.22424    0.16095   11.69892
   0.88589    0.08270    8.23669    0.16162   11.72308
   0.90090    0.08296    8.24914    0.16230   11.74739
   0.91592    0.08322    8.26159    0.16298   11.77185
   0.93093    0.08349    8.27404    0.16366   11.79631
   0.94595    0.08375    8.28664    0.16435   11.82106
   0.96096    0.08401    8.29924    0.16504   11.84566
   0.97598    0.08428    8.31184    0.16574   11.87057
   0.99099    0.08454    8.32459    0.16644   11.89547
   1.00601    0.08481    8.33719    0.16714   11.92052
   1.02102    0.08508    8.34994    0.16785   11.94557
   1.03604    0.08535    8.36283    0.16857   11.97091
   1.05105    0.08562    8.37558    0.16929   11.99626
   1.06607    0.08590    8.38847    0.17001   12.02176
   1.08108    0.08617    8.40137    0.17074   12.04725
   1.09610    0.08645    8.41441    0.17147   12.07289
   1.11111    0.08672    8.42731    0.17221   12.09868
   1.12613    0.08700    8.44035    0.17295   12.12462
   1.14114    0.08728    8.45354    0.17370   12.15071
   1.15616    0.08756    8.46659    0.17445   12.17680
   1.17117    0.08785    8.47978    0.17521   12.20303
   1.18619    0.08813    8.49297    0.17597   12.22942
   1.20120    0.08842    8.50631    0.17674   12.25580
   1.21622    0.08870    8.51950    0.17751   12.28248
   1.23123    0.08899    8.53284    0.17829   12.30916
   1.24625    0.08928    8.54619    0.17907   12.33599
   1.26126    0.08957    8.55967    0.17986   12.36282
   1.27628    0.08987    8.57316    0.18065   12.38995
   1.29129    0.09016    8.58665    0.18145   12.41707
   1.30631    0.09046    8.60029    0.18225   12.44434
   1.32132    0.09076    8.61378    0.18306   12.47176
   1.33634    0.09105    8.62741    0.18388   12.49933
   1.35135    0.09135    8.64120    0.18470   12.52705
   1.36637    0.09166    8.65483    0.18552   12.55477
   1.38138    0.09196    8.66862    0.18635   12.58264
   1.39640    0.09226    8.68255    0.18719   12.61065
   1.41141    0.09257    8.69634    0.18803   12.63881
   1.42643    0.09288    8.71027    0.18888   12.66712
   1.44144    0.09319    8.72420    0.18973   12.69558
   1.45646    0.09350    8.73828    0.19059   12.72404
   1.47147    0.09381    8.75237    0.19146   12.75280
   1.48649    0.09413    8.76645    0.19233   12.78155
   1.50150    0.09444    8.78053    0.19320   12.81046
   1.51652    0.09476    8.79476    0.19409   12.83951
   1.53153    0.09508    8.80899    0.19498   12.86871
   1.54655    0.09540    8.82337    0.19587   12.89806
   1.56156    0.09573    8.83774    0.19677   12.92756
   1.57658    0.09605    8.85212    0.19768   12.95720
   1.59159    0.09638    8.86650    0.19860   12.98685
   1.60661    0.09670    8.88102    0.19952   13.01679
   1.62162    0.09703    8.89555    0.20044   13.04673
   1.63664    0.09737    8.91008    0.20138   13.07697
   1.65165    0.09770    8.92475    0.20232   13.10720
   1.66667    0.09803    8.93942    0.20326   13.13774
   1.68168    0.09837    8.95425    0.20422   13.16827
   1.69670    0.09871    8.96907    0.20518   13.19895
   1.71171    0.09905    8.98389    0.20614   13.22979
   1.72673    0.09939    8.99871    0.20712   13.26091
   1.74174    0.09974    9.01369    0.20810   13.29204
   1.75676    0.10008    9.02866    0.20909   13.32332
   1.77177    0.10043    9.04377    0.21008   13.35474
   1.78679    0.10078    9.05889    0.21108   13.38631
   1.80180    0.10113    9.07401    0.21209   13.41818
   1.81682    0.10148    9.08913    0.21311   13.45005
   1.83183    0.10184    9.10440    0.21413   13.48206
   1.84685    0.10220    9.11981    0.21517   13.51423
   1.86186    0.10256    9.13508    0.21620   13.54669
   1.87688    0.10292    9.15050    0.21725   13.57915
   1.89189    0.10328    9.16606    0.21831   13.61191
   1.90691    0.10364    9.18162    0.21937   13.64467
   1.92192    0.10401    9.19719    0.22044   13.67772
   1.93694    0.10438    9.21275    0.22151   13.71092
   1.95195    0.10475    9.22846    0.22260   13.74412
   1.96697    0.10513    9.24417    0.22369   13.77762
   1.98198    0.10550    9.26003    0.22479   13.81127
   1.99700    0.10588    9.27590    0.22590   13.84521
   2.01201    0.10626    9.29190    0.22702   13.87916
   2.02703    0.10664    9.30776    0.22815   13.91325
   2.04204    0.10702    9.32392    0.22928   13.94764
   2.05706    0.10741    9.33993    0.23043   13.98217
   2.07207    0.10780    9.35608    0.23158   14.01671
   2.08709    0.10819    9.37224    0.23274   14.05154
   2.10210    0.10858    9.38855    0.23391   14.08667
   2.11712    0.10897    9.40485    0.23509   14.12180
   2.13213    0.10937    9.42130    0.23627   14.15723
   2.14715    0.10977    9.43776    0.23747   14.19280
   2.16216    0.11017    9.45421    0.23868   14.22852
   2.17718    0.11057    9.47081    0.23989   14.26439
   2.19219    0.11098    9.48741    0.24111   14.30041
   2.20721    0.11139    9.50416    0.24235   14.33673
   2.22222    0.11180    9.52091    0.24359   14.37319
   2.23724    0.11221    9.53766    0.24484   14.40980
   2.25225    0.11262    9.55456    0.24611   14.44671
   2.26727    0.11304    9.57145    0.24738   14.48377
   2.28228    0.11346    9.58850    0.24866   14.52097
   2.29730    0.11388    9.60555    0.24995   14.55832
   2.31231    0.11431    9.62274    0.25126   14.59597
   2.32733    0.11474    9.63993    0.25257   14.63377
   2.34234    0.11517    9.65713    0.25389   14.67171
   2.35736    0.11560    9.67447    0.25522   14.70996
   2.37237    0.11603    9.69181    0.25657   14.74835
   2.38739    0.11647    9.70930    0.25792   14.78689
   2.40240    0.11691    9.72679    0.25929   14.82572
   2.41742    0.11735    9.74443    0.26066   14.86470
   2.43243    0.11780    9.76207    0.26205   14.90398
   2.44745    0.11825    9.77971    0.26345   14.94341
   2.46246    0.11870    9.79750    0.26486   14.98299
   2.47748    0.11915    9.81543    0.26628   15.02286
   2.49249    0.11960    9.83337    0.26771   15.06288
   2.50751    0.12006    9.85130    0.26916   15.10320
   2.52252    0.12052    9.86939    0.27061   15.14366
   2.53754    0.12099    9.88747    0.27208   15.18442
   2.55255    0.12145    9.90570    0.27356   15.22533
   2.56757    0.12192    9.92393    0.27505   15.26654
   2.58258    0.12240    9.94231    0.27656   15.30789
   2.59760    0.12287    9.96069    0.27808   15.34955
   2.61261    0.12335    9.97922    0.27961   15.39135
   2.62763    0.12383    9.99775    0.28115   15.43344
   2.64264    0.12431   10.01628    0.28270   15.47568
   2.65766    0.12480   10.03495    0.28427   15.51822
   2.67267    0.12529   10.05378    0.28585   15.56106
   2.68769    0.12578   10.07260    0.28745   15.60405
   2.70270    0.12628   10.09157    0.28905   15.64733
   2.71772    0.12678   10.11055    0.29068   15.69076
   2.73273    0.12728   10.12967    0.29231   15.73448
   2.74775    0.12778   10.14879    0.29396   15.77851
   2.76276    0.12829   10.16791    0.29562   15.82283
   2.77778    0.12880   10.18733    0.29730   15.86729
   2.79279    0.12932   10.20660    0.29899   15.91191
   2.80781    0.12983   10.22601    0.30070   15.95697
   2.82282    0.13035   10.24558    0.30242   16.00218
   2.83784    0.13088   10.26515    0.30416   16.04768
   2.85285    0.13140   10.28486    0.30591   16.09348
   2.86787    0.13193   10.30472    0.30767   16.13958
   2.88288    0.13247   10.32444    0.30945   16.18583
   2.89790    0.13301   10.34445    0.31125   16.23237
   2.91291    0.13355   10.36446    0.31306   16.27921
   2.92793    0.13409   10.38447    0.31489   16.32635
   2.94294    0.13464   10.40462    0.31674   16.37363
   2.95796    0.13519   10.42493    0.31860   16.42136
   2.97297    0.13574   10.44524    0.32048   16.46923
   2.98799    0.13630   10.46569    0.32237   16.51756
   3.00300    0.13686   10.48615    0.32428   16.56602
   3.01802    0.13743   10.50675    0.32621   16.61479
   3.03303    0.13800   10.52736    0.32816   16.66385
   3.04805    0.13857   10.54811    0.33012   16.71336
   3.06306    0.13914   10.56901    0.33210   16.76302
   3.07808    0.13972   10.58991    0.33410   16.81297
   3.09309    0.14031   10.61095    0.33612   16.86321
   3.10811    0.14090   10.63200    0.33816   16.91376
   3.12312    0.14149   10.65320    0.34021   16.96475
   3.13814    0.14208   10.67454    0.34228   17.01589
   3.15315    0.14268   10.69589    0.34438   17.06747
   3.16817    0.14328   10.71738    0.34649   17.11920
   3.18318    0.14389   10.73887    0.34862   17.17137
   3.19820    0.14450   10.76051    0.35077   17.22384
   3.21321    0.14512   10.78230    0.35294   17.27661
   3.22823    0.14574   10.80409    0.35513   17.32968
   3.24324    0.14636   10.82603    0.35735   17.38319
   3.25826    0.14699   10.84811    0.35958   17.43699
   3.27327    0.14762   10.87020    0.36183   17.49109
   3.28829    0.14825   10.89243    0.36411   17.54549
   3.30330    0.14889   10.91467    0.36640   17.60034
   3.31832    0.14954   10.93705    0.36872   17.65548
   3.33333    0.15019   10.95958    0.37107   17.71091
   3.34835    0.15084   10.98211    0.37343   17.76679
   3.36336    0.15150   11.00479    0.37581   17.82297
   3.37838    0.15216   11.02761    0.37822   17.87959
   3.39339    0.15283   11.05044    0.38066   17.93651
   3.40841    0.15350   11.07356    0.38311   17.99372
   3.42342    0.15417   11.09654    0.38559   18.05138
   3.43844    0.15485   11.11981    0.38810   18.10949
   3.45345    0.15554   11.14308    0.39063   18.16789
   3.46847    0.15623   11.16650    0.39318   18.22659
   3.48348    0.15692   11.18992    0.39576   18.28573
   3.49850    0.15762   11.21349    0.39837   18.34531
   3.51351    0.15833   11.23720    0.40100   18.40534
   3.52853    0.15904   11.26107    0.40365   18.46567
   3.54354    0.15975   11.28493    0.40634   18.52644
   3.55856    0.16047   11.30909    0.40905   18.58751
   3.57357    0.16119   11.33310    0.41179   18.64917
   3.58859    0.16192   11.35741    0.41455   18.71113
   3.60360    0.16266   11.38172    0.41735   18.77353
   3.61862    0.16340   11.40618    0.42017   18.83638
   3.63363    0.16414   11.43078    0.42302   18.89952
   3.64865    0.16489   11.45554    0.42590   18.96326
   3.66366    0.16565   11.48029    0.42881   19.02729
   3.67868    0.16641   11.50519    0.43175   19.09192
   3.69369    0.16717   11.53024    0.43472   19.15684
   3.70871    0.16795   11.55544    0.43772   19.22221
   3.72372    0.16872   11.58064    0.44076   19.28817
   3.73874    0.16951   11.60599    0.44382   19.35443
   3.75375    0.17030   11.63148    0.44692   19.42127
   3.76877    0.17109   11.65712    0.45005   19.48857
   3.78378    0.17189   11.68291    0.45321   19.55631
   3.79880    0.17270   11.70870    0.45641   19.62449
   3.81381    0.17351   11.73479    0.45964   19.69327
   3.82883    0.17433   11.76088    0.46290   19.76234
   3.84384    0.17515   11.78712    0.46620   19.83200
   3.85886    0.17598   11.81335    0.46954   19.90226
   3.87387    0.17682   11.83988    0.47291   19.97297
   3.88889    0.17766   11.86642    0.47632   20.04412
   3.90390    0.17851   11.89324    0.47976   20.11571
   3.91892    0.17936   11.92007    0.48325   20.18804
   3.93393    0.18023   11.94705    0.48677   20.26067
   3.94895    0.18109   11.97418    0.49033   20.33404
   3.96396    0.18197   12.00145    0.49393   20.40786
   3.97898    0.18285   12.02872    0.49757   20.48212
   3.99399    0.18374   12.05629    0.50125   20.55697
   4.00901    0.18463   12.08386    0.50497   20.63242
   4.02402    0.18554   12.11173    0.50873   20.70846
   4.03904    0.18644   12.13959    0.51254   20.78509
   4.05405    0.18736   12.16761    0.51639   20.86217
   4.06907    0.18828   12.19577    0.52028   20.93998
   4.08408    0.18921   12.22423    0.52422   21.01825
   4.09910    0.19015   12.25269    0.52820   21.09725
   4.11411    0.19109   12.28130    0.53223   21.17670
   4.12913    0.19204   12.30990    0.53630   21.25674
   4.14414    0.19300   12.33881    0.54042   21.33752
   4.15916    0.19397   12.36786    0.54459   21.41890
   4.17417    0.19494   12.39706    0.54881   21.50087
   4.18919    0.19593   12.42641    0.55308   21.58343
   4.20420    0.19691   12.45590    0.55739   21.66673
   4.21922    0.19791   12.48555    0.56176   21.75062
   4.23423    0.19892   12.51534    0.56618   21.83526
   4.24925    0.19993   12.54514    0.57066   21.92049
   4.26426    0.20095   12.57523    0.57518   22.00631
   4.27928    0.20198   12.60546    0.57976   22.09287
   4.29429    0.20302   12.63585    0.58440   22.18018
   4.30931    0.20407   12.66638    0.58909   22.26822
   4.32432    0.20512   12.69721    0.59384   22.35686
   4.33934    0.20618   12.72805    0.59865   22.44624
   4.35435    0.20725   12.75902    0.60351   22.53636
   4.36937    0.20834   12.79015    0.60844   22.62722
   4.38438    0.20942   12.82158    0.61342   22.71883
   4.39940    0.21052   12.85300    0.61847   22.81117
   4.41441    0.21163   12.88472    0.62358   22.90426
   4.42943    0.21275   12.91659    0.62876   22.99808
   4.44444    0.21387   12.94860    0.63400   23.09280
   4.45946    0.21501   12.98077    0.63931   23.18826
   4.47447    0.21615   13.01308    0.64468   23.28445
   4.48949    0.21731   13.04569    0.65012   23.38154
   4.50450    0.21847   13.07830    0.65563   23.47937
   4.51952    0.21965   13.11121    0.66121   23.57808
   4.53453    0.22083   13.14426    0.66687   23.67769
   4.54955    0.22202   13.17746    0.67260   23.77804
   4.56456    0.22323   13.21081    0.67840   23.87928
   4.57958    0.22444   13.24446    0.68427   23.98140
   4.59459    0.22566   13.27825    0.69023   24.08442
   4.60961    0.22690   13.31220    0.69626   24.18833
   4.62462    0.22815   13.34629    0.70237   24.29312
   4.63964    0.22940   13.38068    0.70857   24.39895
   4.65465    0.23067   13.41521    0.71484   24.50567
   4.66967    0.23195   13.44990    0.72121   24.61329
   4.68469    0.23324   13.48473    0.72765   24.72179
   4.69970    0.23454   13.51986    0.73418   24.83132
   4.71472    0.23585   13.55514    0.74081   24.94190
   4.72973    0.23717   13.59056    0.74752   25.05336
   4.74474    0.23851   13.62629    0.75433   25.16602
   4.75976    0.23986   13.66216    0.76122   25.27955
   4.77478    0.24122   13.69832    0.76822   25.39413
   4.78979    0.24259   13.73464    0.77531   25.50975
   4.80481    0.24397   13.77110    0.78250   25.62655
   4.81982    0.24537   13.80786    0.78979   25.74439
   4.83484    0.24677   13.84477    0.79719   25.86326
   4.84985    0.24820   13.88183    0.80469   25.98333
   4.86487    0.24963   13.91918    0.81229   26.10443
   4.87988    0.25108   13.95668    0.82001   26.22671
   4.89490    0.25254   13.99448    0.82783   26.35018
   4.90991    0.25401   14.03257    0.83577   26.47484
   4.92492    0.25550   14.07081    0.84383   26.60068
   4.93994    0.25700   14.10920    0.85200   26.72771
   4.95496    0.25852   14.14789    0.86029   26.85607
   4.96997    0.26005   14.18672    0.86871   26.98547
   4.98499    0.26159   14.22585    0.87724   27.11635
   5.00000    0.26315   14.26528    0.88591   27.24842
   5.01502    0.26472   14.30486    0.89471   27.38182
   5.03003    0.26631   14.34473    0.90363   27.51656
   5.04505    0.26791   14.38475    0.91270   27.65263
   5.06006    0.26953   14.42507    0.92190   27.79004
