#  __  __   ________   ___ __ __    _______   ______        
# /_/\/_/\ /_______/\ /__//_//_/\ /_______/\ /_____/\       
# \ \ \ \ \\::: _  \ \\::\| \| \ \\::: _  \ \\:::_ \ \      
#  \:\_\ \ \\::(_)  \ \\:.      \ \\::(_)  \/_\:\ \ \ \     
#   \::::_\/ \:: __  \ \\:.\-/\  \ \\::  _  \ \\:\ \ \ \    
#     \::\ \  \:.\ \  \ \\. \  \  \ \\::(_)  \ \\:\_\ \ \   
#      \__\/   \__\/\__\/ \__\/ \__\/ \_______\/ \_____\/   
#                                                           
#             GPL Version 4.0.0 Revision 4281               
#                    MPI+OpenMP Build                       
#                http://www.yambo-code.org                  
#
# Reflectivity @ Q(1) [q->0 direction] :0.1000E-4  0.000     0.000   
#
#
# - Energies      are Teter 93(XC)+Scissor
# - Wavefunctions are Teter 93(XC)
#
# - The Green`s function is resonant -
# - Using the Length Gauge -
# - [r,Vnl] *is* included -
#
#   BSK|Identifier              :798
#      |Dimension               :69
#      |Bands                   :1 - 70
#      |Exchange           [res]: yes
#      |Correlation        [res]: yes
#      |Kernel`s coupling       : no
#      |Exchange           [cpl]: no
#      |W interaction is bare   : no
#      |Correlation        [cpl]: no
#      |ALDA kernel in R-space  : no
#      |RL vectors    [exchange]:437
#      |RL vectors [correlation]:619
#      |E/h energy range    [ev]:-1.000000 - -1.000000
#      |Coupling range     [o/o]: 100.0000 -  100.0000
#    W |Interaction is diagonal : no
#      |Matrix size             :1503
#      |Bands                   :1 - 250
#      |e/h energy range    [ev]:-1.000000 - -1.000000
#      |Poles              [o/o]: 100.0000
#      |Rl vectors in the sum   :9939
#      |[r,Vnl] included        : yes
#      |Field direction         :0.1000E-4  0.000000  0.000000
#      |Coulomb Cutoff          :none
#      |xc-Kernel               :none
#   RIM|RL components      [col]:0
#      |Random points      [col]:0
#
#  E/ev[1]    eel /Im[2] eel /Re[3] eel0/Im[4] eel0/Re[5]
#
  0.00      0.871E-11  -.986      -.247E-10  -.992    
 0.2002E-1  0.6479E-6  -.9856     0.1372E-6  -.9915   
 0.4004E-1  0.1296E-5  -.9856     0.2745E-6  -.9915   
 0.6006E-1  0.1944E-5  -.9856     0.4118E-6  -.9915   
 0.8008E-1  0.2592E-5  -.9856     0.5490E-6  -.9915   
 0.1001     0.3240E-5  -.9856     0.6863E-6  -.9915   
 0.1201     0.3889E-5  -.9856     0.8236E-6  -.9915   
 0.1401     0.4537E-5  -.9856     0.9609E-6  -.9915   
 0.1602     0.5186E-5  -.9856     0.1098E-5  -.9915   
 0.1802     0.5835E-5  -.9856     0.1236E-5  -.9915   
 0.2002     0.6485E-5  -.9856     0.1373E-5  -.9915   
 0.2202     0.7135E-5  -.9856     0.1510E-5  -.9915   
 0.2402     0.7785E-5  -.9856     0.1648E-5  -.9915   
 0.2603     0.8436E-5  -.9856     0.1785E-5  -.9915   
 0.2803     0.9087E-5  -.9856     0.1923E-5  -.9915   
 0.3003     0.9738E-5  -.9856     0.2060E-5  -.9915   
 0.3203     0.1039E-4  -.9856     0.2198E-5  -.9915   
 0.3403     0.1104E-4  -.9856     0.2335E-5  -.9915   
 0.3604     0.1170E-4  -.9856     0.2473E-5  -.9915   
 0.3804     0.1235E-4  -.9856     0.2611E-5  -.9915   
 0.4004     0.1301E-4  -.9856     0.2749E-5  -.9915   
 0.4204     0.1366E-4  -.9856     0.2886E-5  -.9915   
 0.4404     0.1432E-4  -.9856     0.3024E-5  -.9915   
 0.4605     0.1497E-4  -.9856     0.3162E-5  -.9915   
 0.4805     0.1563E-4  -.9856     0.3300E-5  -.9915   
 0.5005     0.1629E-4  -.9856     0.3438E-5  -.9915   
 0.5205     0.1695E-4  -.9856     0.3576E-5  -.9915   
 0.5405     0.1761E-4  -.9856     0.3715E-5  -.9915   
 0.5606     0.1827E-4  -.9856     0.3853E-5  -.9915   
 0.5806     0.1893E-4  -.9856     0.3991E-5  -.9915   
 0.6006     0.1960E-4  -.9856     0.4130E-5  -.9915   
 0.6206     0.2026E-4  -.9856     0.4268E-5  -.9915   
 0.6406     0.2093E-4  -.9856     0.4407E-5  -.9915   
 0.6607     0.2159E-4  -.9856     0.4545E-5  -.9915   
 0.6807     0.2226E-4  -.9856     0.4684E-5  -.9915   
 0.7007     0.2293E-4  -.9856     0.4823E-5  -.9915   
 0.7207     0.2360E-4  -.9856     0.4962E-5  -.9915   
 0.7407     0.2427E-4  -.9856     0.5101E-5  -.9915   
 0.7608     0.2494E-4  -.9856     0.5240E-5  -.9915   
 0.7808     0.2562E-4  -.9855     0.5379E-5  -.9915   
 0.8008     0.2629E-4  -.9855     0.5518E-5  -.9915   
 0.8208     0.2697E-4  -.9855     0.5658E-5  -.9915   
 0.8408     0.2765E-4  -.9855     0.5798E-5  -.9915   
 0.8609     0.2833E-4  -.9855     0.5937E-5  -.9915   
 0.8809     0.2901E-4  -.9855     0.6077E-5  -.9915   
 0.9009     0.2970E-4  -.9855     0.6217E-5  -.9915   
 0.9209     0.3038E-4  -.9855     0.6357E-5  -.9915   
 0.9409     0.3107E-4  -.9855     0.6497E-5  -.9915   
 0.9610     0.3176E-4  -.9855     0.6637E-5  -.9915   
 0.9810     0.3245E-4  -.9855     0.6778E-5  -.9915   
  1.001     0.3314E-4  -.9855     0.6918E-5  -.9915   
  1.021     0.3383E-4  -.9855     0.7059E-5  -.9915   
  1.041     0.3453E-4  -.9855     0.7200E-5  -.9915   
  1.061     0.3523E-4  -.9855     0.7341E-5  -.9915   
  1.081     0.3593E-4  -.9855     0.7482E-5  -.9915   
  1.101     0.3663E-4  -.9854     0.7623E-5  -.9915   
  1.121     0.3733E-4  -.9854     0.7764E-5  -.9915   
  1.141     0.3804E-4  -.9854     0.7906E-5  -.9915   
  1.161     0.3875E-4  -.9854     0.8048E-5  -.9915   
  1.181     0.3946E-4  -.9854     0.8190E-5  -.9915   
  1.201     0.4017E-4  -.9854     0.8332E-5  -.9915   
  1.221     0.4088E-4  -.9854     0.8474E-5  -.9915   
  1.241     0.4160E-4  -.9854     0.8616E-5  -.9915   
  1.261     0.4232E-4  -.9854     0.8759E-5  -.9915   
  1.281     0.4304E-4  -.9854     0.8901E-5  -.9915   
  1.301     0.4377E-4  -.9854     0.9044E-5  -.9915   
  1.321     0.4449E-4  -.9854     0.9187E-5  -.9915   
  1.341     0.4522E-4  -.9853     0.9330E-5  -.9915   
  1.361     0.4596E-4  -.9853     0.9474E-5  -.9915   
  1.381     0.4669E-4  -.9853     0.9617E-5  -.9915   
  1.401     0.4743E-4  -.9853     0.9761E-5  -.9915   
  1.421     0.4817E-4  -.9853     0.9905E-5  -.9915   
  1.441     0.4891E-4  -.9853     0.1005E-4  -.9915   
  1.461     0.4966E-4  -.9853     0.1019E-4  -.9915   
  1.481     0.5041E-4  -.9853     0.1034E-4  -.9915   
  1.502     0.5116E-4  -.9853     0.1048E-4  -.9914   
  1.522     0.5191E-4  -.9853     0.1063E-4  -.9914   
  1.542     0.5267E-4  -.9853     0.1077E-4  -.9914   
  1.562     0.5343E-4  -.9852     0.1092E-4  -.9914   
  1.582     0.5419E-4  -.9852     0.1106E-4  -.9914   
  1.602     0.5496E-4  -.9852     0.1121E-4  -.9914   
  1.622     0.5573E-4  -.9852     0.1136E-4  -.9914   
  1.642     0.5651E-4  -.9852     0.1150E-4  -.9914   
  1.662     0.5728E-4  -.9852     0.1165E-4  -.9914   
  1.682     0.5806E-4  -.9852     0.1180E-4  -.9914   
  1.702     0.5885E-4  -.9852     0.1194E-4  -.9914   
  1.722     0.5963E-4  -.9851     0.1209E-4  -.9914   
  1.742     0.6043E-4  -.9851     0.1224E-4  -.9914   
  1.762     0.6122E-4  -.9851     0.1239E-4  -.9914   
  1.782     0.6202E-4  -.9851     0.1253E-4  -.9914   
  1.802     0.6282E-4  -.9851     0.1268E-4  -.9914   
  1.822     0.6363E-4  -.9851     0.1283E-4  -.9914   
  1.842     0.6444E-4  -.9851     0.1298E-4  -.9914   
  1.862     0.6525E-4  -.9851     0.1313E-4  -.9914   
  1.882     0.6607E-4  -.9850     0.1328E-4  -.9914   
  1.902     0.6689E-4  -.9850     0.1343E-4  -.9914   
  1.922     0.6771E-4  -.9850     0.1358E-4  -.9914   
  1.942     0.6855E-4  -.9850     0.1373E-4  -.9914   
  1.962     0.6938E-4  -.9850     0.1388E-4  -.9914   
  1.982     0.7022E-4  -.9850     0.1403E-4  -.9914   
  2.002     0.7106E-4  -.9850     0.1418E-4  -.9914   
  2.022     0.7191E-4  -.9850     0.1433E-4  -.9914   
  2.042     0.7276E-4  -.9849     0.1448E-4  -.9914   
  2.062     0.7361E-4  -.9849     0.1463E-4  -.9914   
  2.082     0.7448E-4  -.9849     0.1478E-4  -.9914   
  2.102     0.7534E-4  -.9849     0.1494E-4  -.9914   
  2.122     0.7621E-4  -.9849     0.1509E-4  -.9914   
  2.142     0.7709E-4  -.9849     0.1524E-4  -.9914   
  2.162     0.7797E-4  -.9849     0.1540E-4  -.9914   
  2.182     0.7885E-4  -.9848     0.1555E-4  -.9914   
  2.202     0.7974E-4  -.9848     0.1570E-4  -.9914   
  2.222     0.8064E-4  -.9848     0.1586E-4  -.9914   
  2.242     0.8154E-4  -.9848     0.1601E-4  -.9913   
  2.262     0.8244E-4  -.9848     0.1617E-4  -.9914   
  2.282     0.8335E-4  -.9848     0.1632E-4  -.9913   
  2.302     0.8427E-4  -.9847     0.1648E-4  -.9913   
  2.322     0.8519E-4  -.9847     0.1663E-4  -.9913   
  2.342     0.8612E-4  -.9847     0.1679E-4  -.9913   
  2.362     0.8705E-4  -.9847     0.1695E-4  -.9913   
  2.382     0.8799E-4  -.9847     0.1710E-4  -.9913   
  2.402     0.8893E-4  -.9847     0.1726E-4  -.9913   
  2.422     0.8988E-4  -.9846     0.1742E-4  -.9913   
  2.442     0.9084E-4  -.9846     0.1758E-4  -.9913   
  2.462     0.9180E-4  -.9846     0.1774E-4  -.9913   
  2.482     0.9277E-4  -.9846     0.1789E-4  -.9913   
  2.503     0.9374E-4  -.9846     0.1805E-4  -.9913   
  2.523     0.9472E-4  -.9845     0.1821E-4  -.9913   
  2.543     0.9571E-4  -.9845     0.1837E-4  -.9913   
  2.563     0.9670E-4  -.9845     0.1853E-4  -.9913   
  2.583     0.9770E-4  -.9845     0.1869E-4  -.9913   
  2.603     0.9871E-4  -.9845     0.1886E-4  -.9913   
  2.623     0.9972E-4  -.9844     0.1902E-4  -.9913   
  2.643     0.1007E-3  -.9844     0.1918E-4  -.9913   
  2.663     0.1018E-3  -.9844     0.1934E-4  -.9913   
  2.683     0.1028E-3  -.9844     0.1950E-4  -.9913   
  2.703     0.1038E-3  -.9844     0.1967E-4  -.9913   
  2.723     0.1049E-3  -.9843     0.1983E-4  -.9913   
  2.743     0.1060E-3  -.9843     0.1999E-4  -.9913   
  2.763     0.1070E-3  -.9843     0.2016E-4  -.9913   
  2.783     0.1081E-3  -.9843     0.2032E-4  -.9913   
  2.803     0.1092E-3  -.9843     0.2049E-4  -.9913   
  2.823     0.1103E-3  -.9842     0.2065E-4  -.9913   
  2.843     0.1113E-3  -.9842     0.2082E-4  -.9912   
  2.863     0.1124E-3  -.9842     0.2099E-4  -.9912   
  2.883     0.1136E-3  -.9842     0.2115E-4  -.9912   
  2.903     0.1147E-3  -.9841     0.2132E-4  -.9912   
  2.923     0.1158E-3  -.9841     0.2149E-4  -.9912   
  2.943     0.1169E-3  -.9841     0.2166E-4  -.9912   
  2.963     0.1181E-3  -.9841     0.2183E-4  -.9912   
  2.983     0.1192E-3  -.9840     0.2200E-4  -.9912   
  3.003     0.1204E-3  -.9840     0.2217E-4  -.9912   
  3.023     0.1216E-3  -.9840     0.2234E-4  -.9912   
  3.043     0.1227E-3  -.9840     0.2251E-4  -.9912   
  3.063     0.1239E-3  -.9839     0.2268E-4  -.9912   
  3.083     0.1251E-3  -.9839     0.2285E-4  -.9912   
  3.103     0.1263E-3  -.9839     0.2302E-4  -.9912   
  3.123     0.1276E-3  -.9839     0.2319E-4  -.9912   
  3.143     0.1288E-3  -.9839     0.2337E-4  -.9912   
  3.163     0.1300E-3  -.9838     0.2354E-4  -.9912   
  3.183     0.1313E-3  -.9838     0.2371E-4  -.9912   
  3.203     0.1325E-3  -.9838     0.2389E-4  -.9912   
  3.223     0.1338E-3  -.9837     0.2407E-4  -.9912   
  3.243     0.1351E-3  -.9837     0.2424E-4  -.9912   
  3.263     0.1363E-3  -.9837     0.2442E-4  -.9912   
  3.283     0.1376E-3  -.9837     0.2459E-4  -.9911   
  3.303     0.1390E-3  -.9836     0.2477E-4  -.9911   
  3.323     0.1403E-3  -.9836     0.2495E-4  -.9911   
  3.343     0.1416E-3  -.9836     0.2513E-4  -.9911   
  3.363     0.1429E-3  -.9836     0.2531E-4  -.9911   
  3.383     0.1443E-3  -.9835     0.2549E-4  -.9911   
  3.403     0.1457E-3  -.9835     0.2567E-4  -.9911   
  3.423     0.1470E-3  -.9835     0.2585E-4  -.9911   
  3.443     0.1484E-3  -.9834     0.2603E-4  -.9911   
  3.463     0.1498E-3  -.9834     0.2621E-4  -.9911   
  3.483     0.1512E-3  -.9834     0.2639E-4  -.9911   
  3.504     0.1527E-3  -.9833     0.2658E-4  -.9911   
  3.524     0.1541E-3  -.9833     0.2676E-4  -.9911   
  3.544     0.1556E-3  -.9833     0.2694E-4  -.9911   
  3.564     0.1570E-3  -.9832     0.2713E-4  -.9911   
  3.584     0.1585E-3  -.9832     0.2731E-4  -.9911   
  3.604     0.1600E-3  -.9832     0.2750E-4  -.9911   
  3.624     0.1615E-3  -.9832     0.2769E-4  -.9911   
  3.644     0.1630E-3  -.9831     0.2787E-4  -.9911   
  3.664     0.1645E-3  -.9831     0.2806E-4  -.9910   
  3.684     0.1661E-3  -.9831     0.2825E-4  -.9910   
  3.704     0.1677E-3  -.9830     0.2844E-4  -.9910   
  3.724     0.1692E-3  -.9830     0.2863E-4  -.9910   
  3.744     0.1708E-3  -.9830     0.2882E-4  -.9910   
  3.764     0.1724E-3  -.9829     0.2901E-4  -.9910   
  3.784     0.1740E-3  -.9829     0.2920E-4  -.9910   
  3.804     0.1757E-3  -.9829     0.2940E-4  -.9910   
  3.824     0.1773E-3  -.9828     0.2959E-4  -.9910   
  3.844     0.1790E-3  -.9828     0.2978E-4  -.9910   
  3.864     0.1807E-3  -.9827     0.2998E-4  -.9910   
  3.884     0.1824E-3  -.9827     0.3017E-4  -.9910   
  3.904     0.1841E-3  -.9827     0.3037E-4  -.9910   
  3.924     0.1858E-3  -.9826     0.3057E-4  -.9910   
  3.944     0.1876E-3  -.9826     0.3076E-4  -.9910   
  3.964     0.1894E-3  -.9826     0.3096E-4  -.9910   
  3.984     0.1912E-3  -.9825     0.3116E-4  -.9910   
  4.004     0.1930E-3  -.9825     0.3136E-4  -.9909   
  4.024     0.1948E-3  -.9824     0.3156E-4  -.9909   
  4.044     0.1966E-3  -.9824     0.3176E-4  -.9909   
  4.064     0.1985E-3  -.9824     0.3196E-4  -.9909   
  4.084     0.2004E-3  -.9823     0.3217E-4  -.9909   
  4.104     0.2023E-3  -.9823     0.3237E-4  -.9909   
  4.124     0.2042E-3  -.9822     0.3257E-4  -.9909   
  4.144     0.2061E-3  -.9822     0.3278E-4  -.9909   
  4.164     0.2081E-3  -.9822     0.3299E-4  -.9909   
  4.184     0.2101E-3  -.9821     0.3319E-4  -.9909   
  4.204     0.2121E-3  -.9821     0.3340E-4  -.9909   
  4.224     0.2141E-3  -.9820     0.3361E-4  -.9909   
  4.244     0.2161E-3  -.9820     0.3382E-4  -.9909   
  4.264     0.2182E-3  -.9819     0.3403E-4  -.9909   
  4.284     0.2203E-3  -.9819     0.3424E-4  -.9909   
  4.304     0.2224E-3  -.9819     0.3445E-4  -.9909   
  4.324     0.2246E-3  -.9818     0.3466E-4  -.9908   
  4.344     0.2267E-3  -.9818     0.3487E-4  -.9908   
  4.364     0.2289E-3  -.9817     0.3509E-4  -.9908   
  4.384     0.2311E-3  -.9817     0.3530E-4  -.9908   
  4.404     0.2333E-3  -.9816     0.3552E-4  -.9908   
  4.424     0.2356E-3  -.9816     0.3573E-4  -.9908   
  4.444     0.2379E-3  -.9815     0.3595E-4  -.9908   
  4.464     0.2402E-3  -.9815     0.3617E-4  -.9908   
  4.484     0.2425E-3  -.9814     0.3639E-4  -.9908   
  4.505     0.2449E-3  -.9814     0.3661E-4  -.9908   
  4.525     0.2473E-3  -.9813     0.3683E-4  -.9908   
  4.545     0.2497E-3  -.9813     0.3705E-4  -.9908   
  4.565     0.2522E-3  -.9812     0.3727E-4  -.9908   
  4.585     0.2546E-3  -.9812     0.3750E-4  -.9907   
  4.605     0.2571E-3  -.9811     0.3772E-4  -.9907   
  4.625     0.2597E-3  -.9811     0.3795E-4  -.9907   
  4.645     0.2622E-3  -.9810     0.3818E-4  -.9907   
  4.665     0.2648E-3  -.9810     0.3840E-4  -.9907   
  4.685     0.2675E-3  -.9809     0.3863E-4  -.9907   
  4.705     0.2701E-3  -.9809     0.3886E-4  -.9907   
  4.725     0.2728E-3  -.9808     0.3909E-4  -.9907   
  4.745     0.2755E-3  -.9808     0.3932E-4  -.9907   
  4.765     0.2783E-3  -.9807     0.3955E-4  -.9907   
  4.785     0.2811E-3  -.9807     0.3979E-4  -.9907   
  4.805     0.2839E-3  -.9806     0.4002E-4  -.9907   
  4.825     0.2868E-3  -.9805     0.4026E-4  -.9907   
  4.845     0.2897E-3  -.9805     0.4050E-4  -.9906   
  4.865     0.2926E-3  -.9804     0.4073E-4  -.9906   
  4.885     0.2956E-3  -.9804     0.4097E-4  -.9906   
  4.905     0.2986E-3  -.9803     0.4121E-4  -.9906   
  4.925     0.3016E-3  -.9803     0.4145E-4  -.9906   
  4.945     0.3047E-3  -.9802     0.4169E-4  -.9906   
  4.965     0.3079E-3  -.9801     0.4194E-4  -.9906   
  4.985     0.3110E-3  -.9801     0.4218E-4  -.9906   
  5.005     0.3142E-3  -.9800     0.4243E-4  -.9906   
  5.025     0.3175E-3  -.9799     0.4267E-4  -.9906   
  5.045     0.3208E-3  -.9799     0.4292E-4  -.9906   
  5.065     0.3241E-3  -.9798     0.4317E-4  -.9906   
  5.085     0.3275E-3  -.9798     0.4342E-4  -.9905   
  5.105     0.3310E-3  -.9797     0.4367E-4  -.9905   
  5.125     0.3344E-3  -.9796     0.4392E-4  -.9905   
  5.145     0.3380E-3  -.9796     0.4417E-4  -.9905   
  5.165     0.3415E-3  -.9795     0.4443E-4  -.9905   
  5.185     0.3451E-3  -.9794     0.4468E-4  -.9905   
  5.205     0.3488E-3  -.9793     0.4494E-4  -.9905   
  5.225     0.3525E-3  -.9793     0.4520E-4  -.9905   
  5.245     0.3563E-3  -.9792     0.4546E-4  -.9905   
  5.265     0.3601E-3  -.9791     0.4572E-4  -.9905   
  5.285     0.3640E-3  -.9791     0.4598E-4  -.9905   
  5.305     0.3680E-3  -.9790     0.4624E-4  -.9905   
  5.325     0.3720E-3  -.9789     0.4651E-4  -.9904   
  5.345     0.3760E-3  -.9788     0.4677E-4  -.9904   
  5.365     0.3801E-3  -.9788     0.4704E-4  -.9904   
  5.385     0.3843E-3  -.9787     0.4731E-4  -.9904   
  5.405     0.3885E-3  -.9786     0.4758E-4  -.9904   
  5.425     0.3928E-3  -.9785     0.4785E-4  -.9904   
  5.445     0.3972E-3  -.9785     0.4812E-4  -.9904   
  5.465     0.4016E-3  -.9784     0.4839E-4  -.9904   
  5.485     0.4061E-3  -.9783     0.4867E-4  -.9904   
  5.506     0.4106E-3  -.9782     0.4894E-4  -.9903   
  5.526     0.4153E-3  -.9781     0.4922E-4  -.9903   
  5.546     0.4199E-3  -.9781     0.4950E-4  -.9903   
  5.566     0.4247E-3  -.9780     0.4978E-4  -.9903   
  5.586     0.4295E-3  -.9779     0.5006E-4  -.9903   
  5.606     0.4345E-3  -.9778     0.5035E-4  -.9903   
  5.626     0.4394E-3  -.9777     0.5063E-4  -.9903   
  5.646     0.4445E-3  -.9776     0.5092E-4  -.9903   
  5.666     0.4497E-3  -.9775     0.5121E-4  -.9903   
  5.686     0.4549E-3  -.9774     0.5149E-4  -.9903   
  5.706     0.4602E-3  -.9773     0.5178E-4  -.9903   
  5.726     0.4656E-3  -.9773     0.5208E-4  -.9902   
  5.746     0.4711E-3  -.9772     0.5237E-4  -.9902   
  5.766     0.4766E-3  -.9771     0.5266E-4  -.9902   
  5.786     0.4823E-3  -.9770     0.5296E-4  -.9902   
  5.806     0.4881E-3  -.9769     0.5326E-4  -.9902   
  5.826     0.4939E-3  -.9768     0.5356E-4  -.9902   
  5.846     0.4998E-3  -.9767     0.5386E-4  -.9902   
  5.866     0.5059E-3  -.9766     0.5416E-4  -.9902   
  5.886     0.5120E-3  -.9765     0.5447E-4  -.9902   
  5.906     0.5183E-3  -.9764     0.5477E-4  -.9902   
  5.926     0.5246E-3  -.9763     0.5508E-4  -.9901   
  5.946     0.5311E-3  -.9762     0.5539E-4  -.9901   
  5.966     0.5377E-3  -.9761     0.5570E-4  -.9901   
  5.986     0.5444E-3  -.9759     0.5601E-4  -.9901   
  6.006     0.5512E-3  -.9758     0.5633E-4  -.9901   
  6.026     0.5581E-3  -.9757     0.5665E-4  -.9901   
  6.046     0.5651E-3  -.9756     0.5696E-4  -.9901   
  6.066     0.5723E-3  -.9755     0.5728E-4  -.9901   
  6.086     0.5796E-3  -.9754     0.5760E-4  -.9901   
  6.106     0.5870E-3  -.9753     0.5793E-4  -.9900   
  6.126     0.5946E-3  -.9751     0.5825E-4  -.9900   
  6.146     0.6023E-3  -.9750     0.5858E-4  -.9900   
  6.166     0.6101E-3  -.9749     0.5891E-4  -.9900   
  6.186     0.6181E-3  -.9748     0.5924E-4  -.9900   
  6.206     0.6262E-3  -.9747     0.5957E-4  -.9900   
  6.226     0.6345E-3  -.9745     0.5990E-4  -.9900   
  6.246     0.6430E-3  -.9744     0.6024E-4  -.9900   
  6.266     0.6516E-3  -.9743     0.6058E-4  -.9899   
  6.286     0.6603E-3  -.9742     0.6092E-4  -.9899   
  6.306     0.6693E-3  -.9740     0.6126E-4  -.9899   
  6.326     0.6784E-3  -.9739     0.6160E-4  -.9899   
  6.346     0.6876E-3  -.9737     0.6195E-4  -.9899   
  6.366     0.6971E-3  -.9736     0.6230E-4  -.9899   
  6.386     0.7067E-3  -.9735     0.6265E-4  -.9899   
  6.406     0.7166E-3  -.9733     0.6300E-4  -.9899   
  6.426     0.7266E-3  -.9732     0.6335E-4  -.9898   
  6.446     0.7368E-3  -.9730     0.6371E-4  -.9898   
  6.466     0.7473E-3  -.9729     0.6406E-4  -.9898   
  6.486     0.7579E-3  -.9727     0.6442E-4  -.9898   
  6.507     0.7688E-3  -.9726     0.6479E-4  -.9898   
